 *****  MODTRAN3 Version 1.3  12/1/95  *****
0  FREQ   WAVLEN    PATH THERMAL      SURFACE EMISSION    SURFACE REFLECTED     TOTAL RADIANCE   INTEGRAL    TOTAL
  (CM-1) (MICRN)    (CM-1)   (MICRN)    (CM-1)   (MICRN)    (CM-1)   (MICRN)    (CM-1)   (MICRN)    (CM-1)   TRANS
      2. 4999.998  8.04E-10  3.22E-13  0.00E+00  0.00E+00  0.00E+00  0.00E+00  8.04E-10  3.22E-13  8.04E-10  0.38055
      4. 2500.000  2.74E-09  4.38E-12  0.00E+00  0.00E+00  0.00E+00  0.00E+00  2.74E-09  4.38E-12  6.28E-09  0.33847
      6. 1666.666  7.15E-09  2.57E-11  0.00E+00  0.00E+00  0.00E+00  0.00E+00  7.15E-09  2.57E-11  2.06E-08  0.21037
      8. 1250.000  1.36E-08  8.68E-11  0.00E+00  0.00E+00  0.00E+00  0.00E+00  1.36E-08  8.68E-11  4.77E-08  0.11635
     10. 1000.000  2.28E-08  2.28E-10  0.00E+00  0.00E+00  0.00E+00  0.00E+00  2.28E-08  2.28E-10  9.32E-08  0.04497
     12.  833.333  3.37E-08  4.86E-10  0.00E+00  0.00E+00  0.00E+00  0.00E+00  3.37E-08  4.86E-10  1.61E-07  0.00379
     14.  714.286  4.58E-08  8.97E-10  0.00E+00  0.00E+00  0.00E+00  0.00E+00  4.58E-08  8.97E-10  2.52E-07  0.00002
     16.  625.000  5.95E-08  1.52E-09  0.00E+00  0.00E+00  0.00E+00  0.00E+00  5.95E-08  1.52E-09  3.71E-07  0.00000
     18.  555.555  7.49E-08  2.43E-09  0.00E+00  0.00E+00  0.00E+00  0.00E+00  7.49E-08  2.43E-09  5.21E-07  0.00000
     20.  500.000  9.19E-08  3.68E-09  0.00E+00  0.00E+00  0.00E+00  0.00E+00  9.19E-08  3.68E-09  7.05E-07  0.00000
     22.  454.545  1.11E-07  5.35E-09  0.00E+00  0.00E+00  0.00E+00  0.00E+00  1.11E-07  5.35E-09  9.26E-07  0.00000
     24.  416.667  1.31E-07  7.54E-09  0.00E+00  0.00E+00  0.00E+00  0.00E+00  1.31E-07  7.54E-09  1.19E-06  0.00000
     26.  384.615  1.53E-07  1.03E-08  0.00E+00  0.00E+00  0.00E+00  0.00E+00  1.53E-07  1.03E-08  1.49E-06  0.00000
     28.  357.143  1.76E-07  1.38E-08  0.00E+00  0.00E+00  0.00E+00  0.00E+00  1.76E-07  1.38E-08  1.85E-06  0.00000
     30.  333.333  2.01E-07  1.81E-08  0.00E+00  0.00E+00  0.00E+00  0.00E+00  2.01E-07  1.81E-08  2.25E-06  0.00000
     32.  312.500  2.28E-07  2.33E-08  0.00E+00  0.00E+00  0.00E+00  0.00E+00  2.28E-07  2.33E-08  2.70E-06  0.00000
     34.  294.118  2.56E-07  2.96E-08  0.00E+00  0.00E+00  0.00E+00  0.00E+00  2.56E-07  2.96E-08  3.22E-06  0.00000
     36.  277.778  2.86E-07  3.70E-08  0.00E+00  0.00E+00  0.00E+00  0.00E+00  2.86E-07  3.70E-08  3.79E-06  0.00000
     38.  263.158  3.17E-07  4.57E-08  0.00E+00  0.00E+00  0.00E+00  0.00E+00  3.17E-07  4.57E-08  4.42E-06  0.00000
     40.  250.000  3.49E-07  5.58E-08  0.00E+00  0.00E+00  0.00E+00  0.00E+00  3.49E-07  5.58E-08  5.12E-06  0.00000
     42.  238.095  3.83E-07  6.75E-08  0.00E+00  0.00E+00  0.00E+00  0.00E+00  3.83E-07  6.75E-08  5.88E-06  0.00000
     44.  227.273  4.18E-07  8.09E-08  0.00E+00  0.00E+00  0.00E+00  0.00E+00  4.18E-07  8.09E-08  6.72E-06  0.00000
     46.  217.391  4.54E-07  9.61E-08  0.00E+00  0.00E+00  0.00E+00  0.00E+00  4.54E-07  9.61E-08  7.63E-06  0.00000
     48.  208.333  4.92E-07  1.13E-07  0.00E+00  0.00E+00  0.00E+00  0.00E+00  4.92E-07  1.13E-07  8.61E-06  0.00000
     50.  200.000  5.31E-07  1.33E-07  0.00E+00  0.00E+00  0.00E+00  0.00E+00  5.31E-07  1.33E-07  9.68E-06  0.00000
     52.  192.308  5.72E-07  1.55E-07  0.00E+00  0.00E+00  0.00E+00  0.00E+00  5.72E-07  1.55E-07  1.08E-05  0.00000
     54.  185.185  6.13E-07  1.79E-07  0.00E+00  0.00E+00  0.00E+00  0.00E+00  6.13E-07  1.79E-07  1.20E-05  0.00000
     56.  178.571  6.56E-07  2.06E-07  0.00E+00  0.00E+00  0.00E+00  0.00E+00  6.56E-07  2.06E-07  1.34E-05  0.00000
     58.  172.414  7.00E-07  2.36E-07  0.00E+00  0.00E+00  0.00E+00  0.00E+00  7.00E-07  2.36E-07  1.48E-05  0.00000
     60.  166.667  7.45E-07  2.68E-07  0.00E+00  0.00E+00  0.00E+00  0.00E+00  7.45E-07  2.68E-07  1.62E-05  0.00000
     62.  161.290  7.92E-07  3.04E-07  0.00E+00  0.00E+00  0.00E+00  0.00E+00  7.92E-07  3.04E-07  1.78E-05  0.00000
     64.  156.250  8.39E-07  3.44E-07  0.00E+00  0.00E+00  0.00E+00  0.00E+00  8.39E-07  3.44E-07  1.95E-05  0.00000
     66.  151.515  8.88E-07  3.87E-07  0.00E+00  0.00E+00  0.00E+00  0.00E+00  8.88E-07  3.87E-07  2.13E-05  0.00000
     68.  147.059  9.38E-07  4.34E-07  0.00E+00  0.00E+00  0.00E+00  0.00E+00  9.38E-07  4.34E-07  2.32E-05  0.00000
     70.  142.857  9.88E-07  4.84E-07  0.00E+00  0.00E+00  0.00E+00  0.00E+00  9.88E-07  4.84E-07  2.51E-05  0.00000
     72.  138.889  1.04E-06  5.39E-07  0.00E+00  0.00E+00  0.00E+00  0.00E+00  1.04E-06  5.39E-07  2.72E-05  0.00000
     74.  135.135  1.09E-06  5.99E-07  0.00E+00  0.00E+00  0.00E+00  0.00E+00  1.09E-06  5.99E-07  2.94E-05  0.00000
     76.  131.579  1.15E-06  6.62E-07  0.00E+00  0.00E+00  0.00E+00  0.00E+00  1.15E-06  6.62E-07  3.17E-05  0.00000
     78.  128.205  1.20E-06  7.31E-07  0.00E+00  0.00E+00  0.00E+00  0.00E+00  1.20E-06  7.31E-07  3.41E-05  0.00000
     80.  125.000  1.26E-06  8.05E-07  0.00E+00  0.00E+00  0.00E+00  0.00E+00  1.26E-06  8.05E-07  3.66E-05  0.00000
     82.  121.951  1.31E-06  8.84E-07  0.00E+00  0.00E+00  0.00E+00  0.00E+00  1.31E-06  8.84E-07  3.92E-05  0.00000
     84.  119.048  1.37E-06  9.68E-07  0.00E+00  0.00E+00  0.00E+00  0.00E+00  1.37E-06  9.68E-07  4.20E-05  0.00000
     86.  116.279  1.43E-06  1.06E-06  0.00E+00  0.00E+00  0.00E+00  0.00E+00  1.43E-06  1.06E-06  4.48E-05  0.00000
     88.  113.636  1.49E-06  1.15E-06  0.00E+00  0.00E+00  0.00E+00  0.00E+00  1.49E-06  1.15E-06  4.78E-05  0.00000
     90.  111.111  1.55E-06  1.26E-06  0.00E+00  0.00E+00  0.00E+00  0.00E+00  1.55E-06  1.26E-06  5.09E-05  0.00000
     92.  108.696  1.61E-06  1.36E-06  0.00E+00  0.00E+00  0.00E+00  0.00E+00  1.61E-06  1.36E-06  5.41E-05  0.00000
     94.  106.383  1.67E-06  1.48E-06  0.00E+00  0.00E+00  0.00E+00  0.00E+00  1.67E-06  1.48E-06  5.75E-05  0.00000
     96.  104.167  1.74E-06  1.60E-06  0.00E+00  0.00E+00  0.00E+00  0.00E+00  1.74E-06  1.60E-06  6.10E-05  0.00000
     98.  102.041  1.80E-06  1.73E-06  0.00E+00  0.00E+00  0.00E+00  0.00E+00  1.80E-06  1.73E-06  6.46E-05  0.00000
    100.  100.000  1.86E-06  1.86E-06  0.00E+00  0.00E+00  0.00E+00  0.00E+00  1.86E-06  1.86E-06  6.83E-05  0.00000
    102.   98.039  1.93E-06  2.01E-06  0.00E+00  0.00E+00  0.00E+00  0.00E+00  1.93E-06  2.01E-06  7.21E-05  0.00000
    104.   96.154  1.99E-06  2.16E-06  0.00E+00  0.00E+00  0.00E+00  0.00E+00  1.99E-06  2.16E-06  7.61E-05  0.00000
    106.   94.340  2.06E-06  2.31E-06  0.00E+00  0.00E+00  0.00E+00  0.00E+00  2.06E-06  2.31E-06  8.03E-05  0.00000
    108.   92.593  2.13E-06  2.48E-06  0.00E+00  0.00E+00  0.00E+00  0.00E+00  2.13E-06  2.48E-06  8.45E-05  0.00000
    110.   90.909  2.19E-06  2.66E-06  0.00E+00  0.00E+00  0.00E+00  0.00E+00  2.19E-06  2.66E-06  8.89E-05  0.00000
    112.   89.286  2.26E-06  2.84E-06  0.00E+00  0.00E+00  0.00E+00  0.00E+00  2.26E-06  2.84E-06  9.34E-05  0.00000
    114.   87.719  2.33E-06  3.03E-06  0.00E+00  0.00E+00  0.00E+00  0.00E+00  2.33E-06  3.03E-06  9.81E-05  0.00000
    116.   86.207  2.40E-06  3.23E-06  0.00E+00  0.00E+00  0.00E+00  0.00E+00  2.40E-06  3.23E-06  1.03E-04  0.00000
    118.   84.746  2.47E-06  3.44E-06  0.00E+00  0.00E+00  0.00E+00  0.00E+00  2.47E-06  3.44E-06  1.08E-04  0.00000
    120.   83.333  2.54E-06  3.66E-06  0.00E+00  0.00E+00  0.00E+00  0.00E+00  2.54E-06  3.66E-06  1.13E-04  0.00000
    122.   81.967  2.61E-06  3.89E-06  0.00E+00  0.00E+00  0.00E+00  0.00E+00  2.61E-06  3.89E-06  1.18E-04  0.00000
    124.   80.645  2.68E-06  4.13E-06  0.00E+00  0.00E+00  0.00E+00  0.00E+00  2.68E-06  4.13E-06  1.24E-04  0.00000
    126.   79.365  2.76E-06  4.38E-06  0.00E+00  0.00E+00  0.00E+00  0.00E+00  2.76E-06  4.38E-06  1.29E-04  0.00000
    128.   78.125  2.83E-06  4.64E-06  0.00E+00  0.00E+00  0.00E+00  0.00E+00  2.83E-06  4.64E-06  1.35E-04  0.00000
    130.   76.923  2.90E-06  4.91E-06  0.00E+00  0.00E+00  0.00E+00  0.00E+00  2.90E-06  4.91E-06  1.40E-04  0.00000
    132.   75.758  2.98E-06  5.19E-06  0.00E+00  0.00E+00  0.00E+00  0.00E+00  2.98E-06  5.19E-06  1.46E-04  0.00000
    134.   74.627  3.05E-06  5.48E-06  0.00E+00  0.00E+00  0.00E+00  0.00E+00  3.05E-06  5.48E-06  1.53E-04  0.00000
    136.   73.529  3.13E-06  5.78E-06  0.00E+00  0.00E+00  0.00E+00  0.00E+00  3.13E-06  5.78E-06  1.59E-04  0.00000
    138.   72.464  3.20E-06  6.09E-06  0.00E+00  0.00E+00  0.00E+00  0.00E+00  3.20E-06  6.09E-06  1.65E-04  0.00000
    140.   71.429  3.28E-06  6.42E-06  0.00E+00  0.00E+00  0.00E+00  0.00E+00  3.28E-06  6.42E-06  1.72E-04  0.00000
    142.   70.423  3.35E-06  6.76E-06  0.00E+00  0.00E+00  0.00E+00  0.00E+00  3.35E-06  6.76E-06  1.78E-04  0.00000
    144.   69.444  3.43E-06  7.11E-06  0.00E+00  0.00E+00  0.00E+00  0.00E+00  3.43E-06  7.11E-06  1.85E-04  0.00000
    146.   68.493  3.50E-06  7.47E-06  0.00E+00  0.00E+00  0.00E+00  0.00E+00  3.50E-06  7.47E-06  1.92E-04  0.00000
    148.   67.568  3.58E-06  7.84E-06  0.00E+00  0.00E+00  0.00E+00  0.00E+00  3.58E-06  7.84E-06  1.99E-04  0.00000
    150.   66.667  3.66E-06  8.23E-06  0.00E+00  0.00E+00  0.00E+00  0.00E+00  3.66E-06  8.23E-06  2.07E-04  0.00000
    152.   65.789  3.74E-06  8.63E-06  0.00E+00  0.00E+00  0.00E+00  0.00E+00  3.74E-06  8.63E-06  2.14E-04  0.00000
    154.   64.935  3.81E-06  9.04E-06  0.00E+00  0.00E+00  0.00E+00  0.00E+00  3.81E-06  9.04E-06  2.22E-04  0.00000
    156.   64.103  3.89E-06  9.47E-06  0.00E+00  0.00E+00  0.00E+00  0.00E+00  3.89E-06  9.47E-06  2.30E-04  0.00000
    158.   63.291  3.97E-06  9.91E-06  0.00E+00  0.00E+00  0.00E+00  0.00E+00  3.97E-06  9.91E-06  2.38E-04  0.00000
    160.   62.500  4.05E-06  1.04E-05  0.00E+00  0.00E+00  0.00E+00  0.00E+00  4.05E-06  1.04E-05  2.46E-04  0.00000
    162.   61.728  4.13E-06  1.08E-05  0.00E+00  0.00E+00  0.00E+00  0.00E+00  4.13E-06  1.08E-05  2.54E-04  0.00000
    164.   60.976  4.21E-06  1.13E-05  0.00E+00  0.00E+00  0.00E+00  0.00E+00  4.21E-06  1.13E-05  2.62E-04  0.00000
    166.   60.241  4.28E-06  1.18E-05  0.00E+00  0.00E+00  0.00E+00  0.00E+00  4.28E-06  1.18E-05  2.71E-04  0.00000
    168.   59.524  4.36E-06  1.23E-05  0.00E+00  0.00E+00  0.00E+00  0.00E+00  4.36E-06  1.23E-05  2.80E-04  0.00000
    170.   58.824  4.44E-06  1.28E-05  0.00E+00  0.00E+00  0.00E+00  0.00E+00  4.44E-06  1.28E-05  2.89E-04  0.00000
    172.   58.140  4.52E-06  1.34E-05  0.00E+00  0.00E+00  0.00E+00  0.00E+00  4.52E-06  1.34E-05  2.98E-04  0.00000
    174.   57.471  4.60E-06  1.39E-05  0.00E+00  0.00E+00  0.00E+00  0.00E+00  4.60E-06  1.39E-05  3.07E-04  0.00000
    176.   56.818  4.68E-06  1.45E-05  0.00E+00  0.00E+00  0.00E+00  0.00E+00  4.68E-06  1.45E-05  3.16E-04  0.00000
    178.   56.180  4.76E-06  1.51E-05  0.00E+00  0.00E+00  0.00E+00  0.00E+00  4.76E-06  1.51E-05  3.26E-04  0.00000
    180.   55.556  4.84E-06  1.57E-05  0.00E+00  0.00E+00  0.00E+00  0.00E+00  4.84E-06  1.57E-05  3.35E-04  0.00000
    182.   54.945  4.92E-06  1.63E-05  0.00E+00  0.00E+00  0.00E+00  0.00E+00  4.92E-06  1.63E-05  3.45E-04  0.00000
    184.   54.348  5.00E-06  1.69E-05  0.00E+00  0.00E+00  0.00E+00  0.00E+00  5.00E-06  1.69E-05  3.55E-04  0.00000
    186.   53.763  5.08E-06  1.76E-05  0.00E+00  0.00E+00  0.00E+00  0.00E+00  5.08E-06  1.76E-05  3.65E-04  0.00000
    188.   53.191  5.16E-06  1.83E-05  0.00E+00  0.00E+00  0.00E+00  0.00E+00  5.16E-06  1.83E-05  3.76E-04  0.00000
    190.   52.632  5.24E-06  1.89E-05  0.00E+00  0.00E+00  0.00E+00  0.00E+00  5.24E-06  1.89E-05  3.86E-04  0.00000
    192.   52.083  5.32E-06  1.96E-05  0.00E+00  0.00E+00  0.00E+00  0.00E+00  5.32E-06  1.96E-05  3.97E-04  0.00000
    194.   51.546  5.41E-06  2.03E-05  0.00E+00  0.00E+00  0.00E+00  0.00E+00  5.41E-06  2.03E-05  4.08E-04  0.00000
    196.   51.020  5.49E-06  2.11E-05  0.00E+00  0.00E+00  0.00E+00  0.00E+00  5.49E-06  2.11E-05  4.19E-04  0.00000
    198.   50.505  5.57E-06  2.18E-05  0.00E+00  0.00E+00  0.00E+00  0.00E+00  5.57E-06  2.18E-05  4.30E-04  0.00000
    200.   50.000  5.65E-06  2.26E-05  0.00E+00  0.00E+00  0.00E+00  0.00E+00  5.65E-06  2.26E-05  4.41E-04  0.00000
    202.   49.505  5.73E-06  2.34E-05  0.00E+00  0.00E+00  0.00E+00  0.00E+00  5.73E-06  2.34E-05  4.53E-04  0.00000
    204.   49.020  5.81E-06  2.42E-05  0.00E+00  0.00E+00  0.00E+00  0.00E+00  5.81E-06  2.42E-05  4.64E-04  0.00000
    206.   48.544  5.89E-06  2.50E-05  0.00E+00  0.00E+00  0.00E+00  0.00E+00  5.89E-06  2.50E-05  4.76E-04  0.00000
    208.   48.077  5.97E-06  2.58E-05  0.00E+00  0.00E+00  0.00E+00  0.00E+00  5.97E-06  2.58E-05  4.88E-04  0.00000
    210.   47.619  6.05E-06  2.67E-05  0.00E+00  0.00E+00  0.00E+00  0.00E+00  6.05E-06  2.67E-05  5.00E-04  0.00000
    212.   47.170  6.13E-06  2.75E-05  0.00E+00  0.00E+00  0.00E+00  0.00E+00  6.13E-06  2.75E-05  5.12E-04  0.00000
    214.   46.729  6.21E-06  2.84E-05  0.00E+00  0.00E+00  0.00E+00  0.00E+00  6.21E-06  2.84E-05  5.25E-04  0.00000
    216.   46.296  6.29E-06  2.93E-05  0.00E+00  0.00E+00  0.00E+00  0.00E+00  6.29E-06  2.93E-05  5.37E-04  0.00000
    218.   45.872  6.37E-06  3.03E-05  0.00E+00  0.00E+00  0.00E+00  0.00E+00  6.37E-06  3.03E-05  5.50E-04  0.00000
    220.   45.455  6.45E-06  3.12E-05  0.00E+00  0.00E+00  0.00E+00  0.00E+00  6.45E-06  3.12E-05  5.63E-04  0.00000
    222.   45.045  6.53E-06  3.22E-05  0.00E+00  0.00E+00  0.00E+00  0.00E+00  6.53E-06  3.22E-05  5.76E-04  0.00000
    224.   44.643  6.61E-06  3.32E-05  0.00E+00  0.00E+00  0.00E+00  0.00E+00  6.61E-06  3.32E-05  5.89E-04  0.00000
    226.   44.248  6.69E-06  3.42E-05  0.00E+00  0.00E+00  0.00E+00  0.00E+00  6.69E-06  3.42E-05  6.02E-04  0.00000
    228.   43.860  6.77E-06  3.52E-05  0.00E+00  0.00E+00  0.00E+00  0.00E+00  6.77E-06  3.52E-05  6.16E-04  0.00000
    230.   43.478  6.85E-06  3.62E-05  0.00E+00  0.00E+00  0.00E+00  0.00E+00  6.85E-06  3.62E-05  6.30E-04  0.00000
    232.   43.103  6.92E-06  3.73E-05  0.00E+00  0.00E+00  0.00E+00  0.00E+00  6.92E-06  3.73E-05  6.44E-04  0.00000
    234.   42.735  7.00E-06  3.83E-05  0.00E+00  0.00E+00  0.00E+00  0.00E+00  7.00E-06  3.83E-05  6.58E-04  0.00000
    236.   42.373  7.08E-06  3.94E-05  0.00E+00  0.00E+00  0.00E+00  0.00E+00  7.08E-06  3.94E-05  6.72E-04  0.00000
    238.   42.017  7.16E-06  4.06E-05  0.00E+00  0.00E+00  0.00E+00  0.00E+00  7.16E-06  4.06E-05  6.86E-04  0.00000
    240.   41.667  7.24E-06  4.17E-05  0.00E+00  0.00E+00  0.00E+00  0.00E+00  7.24E-06  4.17E-05  7.01E-04  0.00000
    242.   41.322  7.32E-06  4.28E-05  0.00E+00  0.00E+00  0.00E+00  0.00E+00  7.32E-06  4.28E-05  7.15E-04  0.00000
    244.   40.984  7.39E-06  4.40E-05  0.00E+00  0.00E+00  0.00E+00  0.00E+00  7.39E-06  4.40E-05  7.30E-04  0.00000
    246.   40.650  7.47E-06  4.52E-05  0.00E+00  0.00E+00  0.00E+00  0.00E+00  7.47E-06  4.52E-05  7.45E-04  0.00000
    248.   40.323  7.55E-06  4.64E-05  0.00E+00  0.00E+00  0.00E+00  0.00E+00  7.55E-06  4.64E-05  7.60E-04  0.00000
    250.   40.000  7.62E-06  4.77E-05  0.00E+00  0.00E+00  0.00E+00  0.00E+00  7.62E-06  4.77E-05  7.75E-04  0.00000
    252.   39.683  7.70E-06  4.89E-05  0.00E+00  0.00E+00  0.00E+00  0.00E+00  7.70E-06  4.89E-05  7.91E-04  0.00000
    254.   39.370  7.78E-06  5.02E-05  0.00E+00  0.00E+00  0.00E+00  0.00E+00  7.78E-06  5.02E-05  8.06E-04  0.00000
    256.   39.063  7.85E-06  5.15E-05  0.00E+00  0.00E+00  0.00E+00  0.00E+00  7.85E-06  5.15E-05  8.22E-04  0.00000
    258.   38.760  7.93E-06  5.28E-05  0.00E+00  0.00E+00  0.00E+00  0.00E+00  7.93E-06  5.28E-05  8.38E-04  0.00000
    260.   38.462  8.01E-06  5.41E-05  0.00E+00  0.00E+00  0.00E+00  0.00E+00  8.01E-06  5.41E-05  8.54E-04  0.00000
    262.   38.168  8.08E-06  5.55E-05  0.00E+00  0.00E+00  0.00E+00  0.00E+00  8.08E-06  5.55E-05  8.70E-04  0.00000
    264.   37.879  8.16E-06  5.69E-05  0.00E+00  0.00E+00  0.00E+00  0.00E+00  8.16E-06  5.69E-05  8.86E-04  0.00000
    266.   37.594  8.23E-06  5.82E-05  0.00E+00  0.00E+00  0.00E+00  0.00E+00  8.23E-06  5.82E-05  9.03E-04  0.00000
    268.   37.313  8.31E-06  5.97E-05  0.00E+00  0.00E+00  0.00E+00  0.00E+00  8.31E-06  5.97E-05  9.19E-04  0.00000
    270.   37.037  8.38E-06  6.11E-05  0.00E+00  0.00E+00  0.00E+00  0.00E+00  8.38E-06  6.11E-05  9.36E-04  0.00000
    272.   36.765  8.46E-06  6.26E-05  0.00E+00  0.00E+00  0.00E+00  0.00E+00  8.46E-06  6.26E-05  9.53E-04  0.00000
    274.   36.496  8.53E-06  6.40E-05  0.00E+00  0.00E+00  0.00E+00  0.00E+00  8.53E-06  6.40E-05  9.70E-04  0.00000
    276.   36.232  8.60E-06  6.55E-05  0.00E+00  0.00E+00  0.00E+00  0.00E+00  8.60E-06  6.55E-05  9.87E-04  0.00000
    278.   35.971  8.67E-06  6.70E-05  0.00E+00  0.00E+00  0.00E+00  0.00E+00  8.67E-06  6.70E-05  1.00E-03  0.00000
    280.   35.714  8.74E-06  6.85E-05  0.00E+00  0.00E+00  0.00E+00  0.00E+00  8.74E-06  6.85E-05  1.02E-03  0.00000
    282.   35.461  8.81E-06  7.01E-05  0.00E+00  0.00E+00  0.00E+00  0.00E+00  8.81E-06  7.01E-05  1.04E-03  0.00000
    284.   35.211  8.89E-06  7.17E-05  0.00E+00  0.00E+00  0.00E+00  0.00E+00  8.89E-06  7.17E-05  1.06E-03  0.00000
    286.   34.965  8.96E-06  7.33E-05  0.00E+00  0.00E+00  0.00E+00  0.00E+00  8.96E-06  7.33E-05  1.08E-03  0.00000
    288.   34.722  9.03E-06  7.49E-05  0.00E+00  0.00E+00  0.00E+00  0.00E+00  9.03E-06  7.49E-05  1.09E-03  0.00000
    290.   34.483  9.10E-06  7.65E-05  0.00E+00  0.00E+00  0.00E+00  0.00E+00  9.10E-06  7.65E-05  1.11E-03  0.00000
    292.   34.247  9.17E-06  7.82E-05  0.00E+00  0.00E+00  0.00E+00  0.00E+00  9.17E-06  7.82E-05  1.13E-03  0.00000
    294.   34.014  9.24E-06  7.99E-05  0.00E+00  0.00E+00  0.00E+00  0.00E+00  9.24E-06  7.99E-05  1.15E-03  0.00000
    296.   33.784  9.31E-06  8.16E-05  0.00E+00  0.00E+00  0.00E+00  0.00E+00  9.31E-06  8.16E-05  1.17E-03  0.00000
    298.   33.557  9.38E-06  8.33E-05  0.00E+00  0.00E+00  0.00E+00  0.00E+00  9.38E-06  8.33E-05  1.19E-03  0.00000
    300.   33.333  9.44E-06  8.50E-05  0.00E+00  0.00E+00  0.00E+00  0.00E+00  9.44E-06  8.50E-05  1.20E-03  0.00000
    302.   33.113  9.51E-06  8.67E-05  0.00E+00  0.00E+00  0.00E+00  0.00E+00  9.51E-06  8.67E-05  1.22E-03  0.00000
    304.   32.895  9.58E-06  8.85E-05  0.00E+00  0.00E+00  0.00E+00  0.00E+00  9.58E-06  8.85E-05  1.24E-03  0.00000
    306.   32.680  9.65E-06  9.03E-05  0.00E+00  0.00E+00  0.00E+00  0.00E+00  9.65E-06  9.03E-05  1.26E-03  0.00000
    308.   32.468  9.71E-06  9.22E-05  0.00E+00  0.00E+00  0.00E+00  0.00E+00  9.71E-06  9.22E-05  1.28E-03  0.00000
    310.   32.258  9.78E-06  9.40E-05  0.00E+00  0.00E+00  0.00E+00  0.00E+00  9.78E-06  9.40E-05  1.30E-03  0.00000
    312.   32.051  9.85E-06  9.58E-05  0.00E+00  0.00E+00  0.00E+00  0.00E+00  9.85E-06  9.58E-05  1.32E-03  0.00000
    314.   31.847  9.91E-06  9.77E-05  0.00E+00  0.00E+00  0.00E+00  0.00E+00  9.91E-06  9.77E-05  1.34E-03  0.00000
    316.   31.646  9.98E-06  9.96E-05  0.00E+00  0.00E+00  0.00E+00  0.00E+00  9.98E-06  9.96E-05  1.36E-03  0.00000
    318.   31.447  1.00E-05  1.02E-04  0.00E+00  0.00E+00  0.00E+00  0.00E+00  1.00E-05  1.02E-04  1.38E-03  0.00000
    320.   31.250  1.01E-05  1.03E-04  0.00E+00  0.00E+00  0.00E+00  0.00E+00  1.01E-05  1.03E-04  1.40E-03  0.00000
    322.   31.056  1.02E-05  1.05E-04  0.00E+00  0.00E+00  0.00E+00  0.00E+00  1.02E-05  1.05E-04  1.42E-03  0.00000
    324.   30.864  1.02E-05  1.07E-04  0.00E+00  0.00E+00  0.00E+00  0.00E+00  1.02E-05  1.07E-04  1.44E-03  0.00000
    326.   30.675  1.03E-05  1.09E-04  0.00E+00  0.00E+00  0.00E+00  0.00E+00  1.03E-05  1.09E-04  1.46E-03  0.00000
    328.   30.488  1.04E-05  1.11E-04  0.00E+00  0.00E+00  0.00E+00  0.00E+00  1.04E-05  1.11E-04  1.48E-03  0.00000
    330.   30.303  1.04E-05  1.13E-04  0.00E+00  0.00E+00  0.00E+00  0.00E+00  1.04E-05  1.13E-04  1.50E-03  0.00000
    332.   30.120  1.05E-05  1.15E-04  0.00E+00  0.00E+00  0.00E+00  0.00E+00  1.05E-05  1.15E-04  1.52E-03  0.00000
    334.   29.940  1.05E-05  1.18E-04  0.00E+00  0.00E+00  0.00E+00  0.00E+00  1.05E-05  1.18E-04  1.55E-03  0.00000
    336.   29.762  1.06E-05  1.20E-04  0.00E+00  0.00E+00  0.00E+00  0.00E+00  1.06E-05  1.20E-04  1.57E-03  0.00000
    338.   29.586  1.07E-05  1.22E-04  0.00E+00  0.00E+00  0.00E+00  0.00E+00  1.07E-05  1.22E-04  1.59E-03  0.00000
    340.   29.412  1.07E-05  1.24E-04  0.00E+00  0.00E+00  0.00E+00  0.00E+00  1.07E-05  1.24E-04  1.61E-03  0.00000
    342.   29.240  1.08E-05  1.26E-04  0.00E+00  0.00E+00  0.00E+00  0.00E+00  1.08E-05  1.26E-04  1.63E-03  0.00000
    344.   29.070  1.08E-05  1.28E-04  0.00E+00  0.00E+00  0.00E+00  0.00E+00  1.08E-05  1.28E-04  1.65E-03  0.00000
    346.   28.902  1.09E-05  1.30E-04  0.00E+00  0.00E+00  0.00E+00  0.00E+00  1.09E-05  1.30E-04  1.67E-03  0.00000
    348.   28.736  1.09E-05  1.33E-04  0.00E+00  0.00E+00  0.00E+00  0.00E+00  1.09E-05  1.33E-04  1.70E-03  0.00000
    350.   28.571  1.10E-05  1.35E-04  0.00E+00  0.00E+00  0.00E+00  0.00E+00  1.10E-05  1.35E-04  1.72E-03  0.00000
    352.   28.409  1.11E-05  1.37E-04  0.00E+00  0.00E+00  0.00E+00  0.00E+00  1.11E-05  1.37E-04  1.74E-03  0.00000
    354.   28.249  1.11E-05  1.39E-04  0.00E+00  0.00E+00  0.00E+00  0.00E+00  1.11E-05  1.39E-04  1.76E-03  0.00000
    356.   28.090  1.12E-05  1.42E-04  0.00E+00  0.00E+00  0.00E+00  0.00E+00  1.12E-05  1.42E-04  1.79E-03  0.00000
    358.   27.933  1.12E-05  1.44E-04  0.00E+00  0.00E+00  0.00E+00  0.00E+00  1.12E-05  1.44E-04  1.81E-03  0.00000
    360.   27.778  1.13E-05  1.46E-04  0.00E+00  0.00E+00  0.00E+00  0.00E+00  1.13E-05  1.46E-04  1.83E-03  0.00000
    362.   27.624  1.13E-05  1.48E-04  0.00E+00  0.00E+00  0.00E+00  0.00E+00  1.13E-05  1.48E-04  1.85E-03  0.00000
    364.   27.473  1.14E-05  1.51E-04  0.00E+00  0.00E+00  0.00E+00  0.00E+00  1.14E-05  1.51E-04  1.88E-03  0.00000
    366.   27.322  1.14E-05  1.53E-04  0.00E+00  0.00E+00  0.00E+00  0.00E+00  1.14E-05  1.53E-04  1.90E-03  0.00000
    368.   27.174  1.15E-05  1.55E-04  0.00E+00  0.00E+00  0.00E+00  0.00E+00  1.15E-05  1.55E-04  1.92E-03  0.00000
    370.   27.027  1.15E-05  1.58E-04  0.00E+00  0.00E+00  0.00E+00  0.00E+00  1.15E-05  1.58E-04  1.94E-03  0.00000
    372.   26.882  1.16E-05  1.60E-04  0.00E+00  0.00E+00  0.00E+00  0.00E+00  1.16E-05  1.60E-04  1.97E-03  0.00000
    374.   26.738  1.16E-05  1.63E-04  0.00E+00  0.00E+00  0.00E+00  0.00E+00  1.16E-05  1.63E-04  1.99E-03  0.00000
    376.   26.596  1.17E-05  1.65E-04  0.00E+00  0.00E+00  0.00E+00  0.00E+00  1.17E-05  1.65E-04  2.01E-03  0.00000
    378.   26.455  1.17E-05  1.68E-04  0.00E+00  0.00E+00  0.00E+00  0.00E+00  1.17E-05  1.68E-04  2.04E-03  0.00000
    380.   26.316  1.18E-05  1.70E-04  0.00E+00  0.00E+00  0.00E+00  0.00E+00  1.18E-05  1.70E-04  2.06E-03  0.00000
    382.   26.178  1.18E-05  1.73E-04  0.00E+00  0.00E+00  0.00E+00  0.00E+00  1.18E-05  1.73E-04  2.09E-03  0.00000
    384.   26.042  1.19E-05  1.75E-04  0.00E+00  0.00E+00  0.00E+00  0.00E+00  1.19E-05  1.75E-04  2.11E-03  0.00000
    386.   25.907  1.19E-05  1.78E-04  0.00E+00  0.00E+00  0.00E+00  0.00E+00  1.19E-05  1.78E-04  2.13E-03  0.00000
    388.   25.773  1.20E-05  1.80E-04  0.00E+00  0.00E+00  0.00E+00  0.00E+00  1.20E-05  1.80E-04  2.16E-03  0.00000
    390.   25.641  1.20E-05  1.82E-04  0.00E+00  0.00E+00  0.00E+00  0.00E+00  1.20E-05  1.82E-04  2.18E-03  0.00000
    392.   25.510  1.20E-05  1.85E-04  0.00E+00  0.00E+00  0.00E+00  0.00E+00  1.20E-05  1.85E-04  2.20E-03  0.00000
    394.   25.381  1.21E-05  1.88E-04  0.00E+00  0.00E+00  0.00E+00  0.00E+00  1.21E-05  1.88E-04  2.23E-03  0.00000
    396.   25.253  1.22E-05  1.91E-04  0.00E+00  0.00E+00  0.00E+00  0.00E+00  1.22E-05  1.91E-04  2.25E-03  0.00000
    398.   25.126  1.22E-05  1.93E-04  0.00E+00  0.00E+00  0.00E+00  0.00E+00  1.22E-05  1.93E-04  2.28E-03  0.00000
    400.   25.000  1.22E-05  1.96E-04  0.00E+00  0.00E+00  0.00E+00  0.00E+00  1.22E-05  1.96E-04  2.30E-03  0.00000
    402.   24.876  1.23E-05  1.98E-04  0.00E+00  0.00E+00  0.00E+00  0.00E+00  1.23E-05  1.98E-04  2.33E-03  0.00000
    404.   24.752  1.23E-05  2.01E-04  0.00E+00  0.00E+00  0.00E+00  0.00E+00  1.23E-05  2.01E-04  2.35E-03  0.00000
    406.   24.631  1.23E-05  2.03E-04  0.00E+00  0.00E+00  0.00E+00  0.00E+00  1.23E-05  2.03E-04  2.38E-03  0.00000
    408.   24.510  1.24E-05  2.06E-04  0.00E+00  0.00E+00  0.00E+00  0.00E+00  1.24E-05  2.06E-04  2.40E-03  0.00000
    410.   24.390  1.24E-05  2.08E-04  0.00E+00  0.00E+00  0.00E+00  0.00E+00  1.24E-05  2.08E-04  2.43E-03  0.00000
    412.   24.272  1.24E-05  2.11E-04  0.00E+00  0.00E+00  0.00E+00  0.00E+00  1.24E-05  2.11E-04  2.45E-03  0.00000
    414.   24.155  1.25E-05  2.14E-04  0.00E+00  0.00E+00  0.00E+00  0.00E+00  1.25E-05  2.14E-04  2.48E-03  0.00000
    416.   24.038  1.26E-05  2.17E-04  0.00E+00  0.00E+00  0.00E+00  0.00E+00  1.26E-05  2.17E-04  2.50E-03  0.00000
    418.   23.923  1.26E-05  2.20E-04  0.00E+00  0.00E+00  0.00E+00  0.00E+00  1.26E-05  2.20E-04  2.53E-03  0.00000
    420.   23.810  1.27E-05  2.23E-04  0.00E+00  0.00E+00  0.00E+00  0.00E+00  1.27E-05  2.23E-04  2.55E-03  0.00000
    422.   23.697  1.27E-05  2.26E-04  0.00E+00  0.00E+00  0.00E+00  0.00E+00  1.27E-05  2.26E-04  2.58E-03  0.00000
    424.   23.585  1.27E-05  2.29E-04  0.00E+00  0.00E+00  0.00E+00  0.00E+00  1.27E-05  2.29E-04  2.60E-03  0.00000
    426.   23.474  1.27E-05  2.31E-04  0.00E+00  0.00E+00  0.00E+00  0.00E+00  1.27E-05  2.31E-04  2.63E-03  0.00000
    428.   23.364  1.27E-05  2.33E-04  0.00E+00  0.00E+00  0.00E+00  0.00E+00  1.27E-05  2.33E-04  2.65E-03  0.00000
    430.   23.256  1.28E-05  2.36E-04  0.00E+00  0.00E+00  0.00E+00  0.00E+00  1.28E-05  2.36E-04  2.68E-03  0.00000
    432.   23.148  1.28E-05  2.39E-04  0.00E+00  0.00E+00  0.00E+00  0.00E+00  1.28E-05  2.39E-04  2.70E-03  0.00000
    434.   23.041  1.29E-05  2.42E-04  0.00E+00  0.00E+00  0.00E+00  0.00E+00  1.29E-05  2.42E-04  2.73E-03  0.00000
    436.   22.936  1.29E-05  2.45E-04  0.00E+00  0.00E+00  0.00E+00  0.00E+00  1.29E-05  2.45E-04  2.76E-03  0.00000
    438.   22.831  1.29E-05  2.48E-04  0.00E+00  0.00E+00  0.00E+00  0.00E+00  1.29E-05  2.48E-04  2.78E-03  0.00000
    440.   22.727  1.29E-05  2.51E-04  0.00E+00  0.00E+00  0.00E+00  0.00E+00  1.29E-05  2.51E-04  2.81E-03  0.00000
    442.   22.624  1.30E-05  2.54E-04  0.00E+00  0.00E+00  0.00E+00  0.00E+00  1.30E-05  2.54E-04  2.83E-03  0.00000
    444.   22.523  1.30E-05  2.57E-04  0.00E+00  0.00E+00  0.00E+00  0.00E+00  1.30E-05  2.57E-04  2.86E-03  0.00000
    446.   22.422  1.31E-05  2.60E-04  0.00E+00  0.00E+00  0.00E+00  0.00E+00  1.31E-05  2.60E-04  2.89E-03  0.00000
    448.   22.321  1.31E-05  2.62E-04  0.00E+00  0.00E+00  0.00E+00  0.00E+00  1.31E-05  2.62E-04  2.91E-03  0.00001
    450.   22.222  1.31E-05  2.65E-04  0.00E+00  0.00E+00  0.00E+00  0.00E+00  1.31E-05  2.65E-04  2.94E-03  0.00001
    452.   22.124  1.31E-05  2.68E-04  0.00E+00  0.00E+00  0.00E+00  0.00E+00  1.31E-05  2.68E-04  2.96E-03  0.00000
    454.   22.026  1.32E-05  2.71E-04  0.00E+00  0.00E+00  0.00E+00  0.00E+00  1.32E-05  2.71E-04  2.99E-03  0.00000
    456.   21.930  1.32E-05  2.75E-04  0.00E+00  0.00E+00  0.00E+00  0.00E+00  1.32E-05  2.75E-04  3.02E-03  0.00000
    458.   21.834  1.33E-05  2.78E-04  0.00E+00  0.00E+00  0.00E+00  0.00E+00  1.33E-05  2.78E-04  3.04E-03  0.00000
    460.   21.739  1.33E-05  2.80E-04  0.00E+00  0.00E+00  0.00E+00  0.00E+00  1.33E-05  2.80E-04  3.07E-03  0.00000
    462.   21.645  1.32E-05  2.83E-04  0.00E+00  0.00E+00  0.00E+00  0.00E+00  1.32E-05  2.83E-04  3.10E-03  0.00004
    464.   21.552  1.32E-05  2.85E-04  0.00E+00  0.00E+00  0.00E+00  0.00E+00  1.32E-05  2.85E-04  3.12E-03  0.00022
    466.   21.459  1.33E-05  2.88E-04  0.00E+00  0.00E+00  0.00E+00  0.00E+00  1.33E-05  2.88E-04  3.15E-03  0.00018
    468.   21.368  1.33E-05  2.92E-04  0.00E+00  0.00E+00  0.00E+00  0.00E+00  1.33E-05  2.92E-04  3.18E-03  0.00001
    470.   21.277  1.34E-05  2.95E-04  0.00E+00  0.00E+00  0.00E+00  0.00E+00  1.34E-05  2.95E-04  3.20E-03  0.00000
    472.   21.186  1.34E-05  2.99E-04  0.00E+00  0.00E+00  0.00E+00  0.00E+00  1.34E-05  2.99E-04  3.23E-03  0.00000
    474.   21.097  1.34E-05  3.02E-04  0.00E+00  0.00E+00  0.00E+00  0.00E+00  1.34E-05  3.02E-04  3.26E-03  0.00001
    476.   21.008  1.34E-05  3.04E-04  0.00E+00  0.00E+00  0.00E+00  0.00E+00  1.34E-05  3.04E-04  3.28E-03  0.00028
    478.   20.921  1.34E-05  3.05E-04  0.00E+00  0.00E+00  0.00E+00  0.00E+00  1.34E-05  3.05E-04  3.31E-03  0.00136
    480.   20.833  1.34E-05  3.08E-04  0.00E+00  0.00E+00  0.00E+00  0.00E+00  1.34E-05  3.08E-04  3.34E-03  0.00118
    482.   20.747  1.35E-05  3.13E-04  0.00E+00  0.00E+00  0.00E+00  0.00E+00  1.35E-05  3.13E-04  3.36E-03  0.00020
    484.   20.661  1.35E-05  3.17E-04  0.00E+00  0.00E+00  0.00E+00  0.00E+00  1.35E-05  3.17E-04  3.39E-03  0.00001
    486.   20.576  1.35E-05  3.19E-04  0.00E+00  0.00E+00  0.00E+00  0.00E+00  1.35E-05  3.19E-04  3.42E-03  0.00049
    488.   20.492  1.34E-05  3.20E-04  0.00E+00  0.00E+00  0.00E+00  0.00E+00  1.34E-05  3.20E-04  3.44E-03  0.00252
    490.   20.408  1.35E-05  3.24E-04  0.00E+00  0.00E+00  0.00E+00  0.00E+00  1.35E-05  3.24E-04  3.47E-03  0.00199
    492.   20.325  1.36E-05  3.29E-04  0.00E+00  0.00E+00  0.00E+00  0.00E+00  1.36E-05  3.29E-04  3.50E-03  0.00028
    494.   20.243  1.35E-05  3.30E-04  0.00E+00  0.00E+00  0.00E+00  0.00E+00  1.35E-05  3.30E-04  3.53E-03  0.00272
    496.   20.161  1.34E-05  3.29E-04  0.00E+00  0.00E+00  0.00E+00  0.00E+00  1.34E-05  3.29E-04  3.55E-03  0.00950
    498.   20.080  1.34E-05  3.31E-04  0.00E+00  0.00E+00  0.00E+00  0.00E+00  1.34E-05  3.31E-04  3.58E-03  0.00992
    500.   20.000  1.35E-05  3.39E-04  0.00E+00  0.00E+00  0.00E+00  0.00E+00  1.35E-05  3.39E-04  3.61E-03  0.00322
    502.   19.920  1.37E-05  3.45E-04  0.00E+00  0.00E+00  0.00E+00  0.00E+00  1.37E-05  3.45E-04  3.63E-03  0.00014
    504.   19.841  1.37E-05  3.48E-04  0.00E+00  0.00E+00  0.00E+00  0.00E+00  1.37E-05  3.48E-04  3.66E-03  0.00002
    506.   19.763  1.37E-05  3.51E-04  0.00E+00  0.00E+00  0.00E+00  0.00E+00  1.37E-05  3.51E-04  3.69E-03  0.00003
    508.   19.685  1.37E-05  3.53E-04  0.00E+00  0.00E+00  0.00E+00  0.00E+00  1.37E-05  3.53E-04  3.72E-03  0.00077
    510.   19.608  1.37E-05  3.55E-04  0.00E+00  0.00E+00  0.00E+00  0.00E+00  1.37E-05  3.55E-04  3.74E-03  0.00117
    512.   19.531  1.36E-05  3.57E-04  0.00E+00  0.00E+00  0.00E+00  0.00E+00  1.36E-05  3.57E-04  3.77E-03  0.00398
    514.   19.455  1.36E-05  3.60E-04  0.00E+00  0.00E+00  0.00E+00  0.00E+00  1.36E-05  3.60E-04  3.80E-03  0.00391
    516.   19.380  1.38E-05  3.67E-04  0.00E+00  0.00E+00  0.00E+00  0.00E+00  1.38E-05  3.67E-04  3.83E-03  0.00032
    518.   19.305  1.38E-05  3.71E-04  0.00E+00  0.00E+00  0.00E+00  0.00E+00  1.38E-05  3.71E-04  3.85E-03  0.00000
    520.   19.231  1.38E-05  3.72E-04  0.00E+00  0.00E+00  0.00E+00  0.00E+00  1.38E-05  3.72E-04  3.88E-03  0.00088
    522.   19.157  1.36E-05  3.72E-04  0.00E+00  0.00E+00  0.00E+00  0.00E+00  1.36E-05  3.72E-04  3.91E-03  0.00431
    524.   19.084  1.37E-05  3.76E-04  0.00E+00  0.00E+00  0.00E+00  0.00E+00  1.37E-05  3.76E-04  3.93E-03  0.00291
    526.   19.011  1.38E-05  3.81E-04  0.00E+00  0.00E+00  0.00E+00  0.00E+00  1.38E-05  3.81E-04  3.96E-03  0.00149
    528.   18.939  1.35E-05  3.77E-04  0.00E+00  0.00E+00  0.00E+00  0.00E+00  1.35E-05  3.77E-04  3.99E-03  0.01250
    530.   18.868  1.31E-05  3.67E-04  0.00E+00  0.00E+00  0.00E+00  0.00E+00  1.31E-05  3.67E-04  4.02E-03  0.03962
    532.   18.797  1.30E-05  3.67E-04  0.00E+00  0.00E+00  0.00E+00  0.00E+00  1.30E-05  3.67E-04  4.04E-03  0.04735
    534.   18.727  1.34E-05  3.81E-04  0.00E+00  0.00E+00  0.00E+00  0.00E+00  1.34E-05  3.81E-04  4.07E-03  0.02337
    536.   18.657  1.36E-05  3.91E-04  0.00E+00  0.00E+00  0.00E+00  0.00E+00  1.36E-05  3.91E-04  4.10E-03  0.01063
    538.   18.587  1.33E-05  3.84E-04  0.00E+00  0.00E+00  0.00E+00  0.00E+00  1.33E-05  3.84E-04  4.12E-03  0.03192
    540.   18.519  1.32E-05  3.85E-04  0.00E+00  0.00E+00  0.00E+00  0.00E+00  1.32E-05  3.85E-04  4.15E-03  0.03512
    542.   18.450  1.34E-05  3.93E-04  0.00E+00  0.00E+00  0.00E+00  0.00E+00  1.34E-05  3.93E-04  4.18E-03  0.02327
    544.   18.382  1.35E-05  4.01E-04  0.00E+00  0.00E+00  0.00E+00  0.00E+00  1.35E-05  4.01E-04  4.20E-03  0.01556
    546.   18.315  1.39E-05  4.13E-04  0.00E+00  0.00E+00  0.00E+00  0.00E+00  1.39E-05  4.13E-04  4.23E-03  0.00119
    548.   18.248  1.38E-05  4.13E-04  0.00E+00  0.00E+00  0.00E+00  0.00E+00  1.38E-05  4.13E-04  4.26E-03  0.00492
    550.   18.182  1.37E-05  4.13E-04  0.00E+00  0.00E+00  0.00E+00  0.00E+00  1.37E-05  4.13E-04  4.28E-03  0.01004
    552.   18.116  1.33E-05  4.05E-04  0.00E+00  0.00E+00  0.00E+00  0.00E+00  1.33E-05  4.05E-04  4.31E-03  0.03143
    554.   18.051  1.33E-05  4.08E-04  0.00E+00  0.00E+00  0.00E+00  0.00E+00  1.33E-05  4.08E-04  4.34E-03  0.03084
    556.   17.986  1.32E-05  4.08E-04  0.00E+00  0.00E+00  0.00E+00  0.00E+00  1.32E-05  4.08E-04  4.36E-03  0.03649
    558.   17.921  1.27E-05  3.96E-04  0.00E+00  0.00E+00  0.00E+00  0.00E+00  1.27E-05  3.96E-04  4.39E-03  0.06759
    560.   17.857  1.23E-05  3.85E-04  0.00E+00  0.00E+00  0.00E+00  0.00E+00  1.23E-05  3.85E-04  4.41E-03  0.09575
    562.   17.794  1.27E-05  4.01E-04  0.00E+00  0.00E+00  0.00E+00  0.00E+00  1.27E-05  4.01E-04  4.44E-03  0.06960
    564.   17.730  1.32E-05  4.21E-04  0.00E+00  0.00E+00  0.00E+00  0.00E+00  1.32E-05  4.21E-04  4.47E-03  0.03326
    566.   17.668  1.34E-05  4.31E-04  0.00E+00  0.00E+00  0.00E+00  0.00E+00  1.34E-05  4.31E-04  4.49E-03  0.02251
    568.   17.606  1.39E-05  4.47E-04  0.00E+00  0.00E+00  0.00E+00  0.00E+00  1.39E-05  4.47E-04  4.52E-03  0.00232
    570.   17.544  1.38E-05  4.49E-04  0.00E+00  0.00E+00  0.00E+00  0.00E+00  1.38E-05  4.49E-04  4.55E-03  0.00361
    572.   17.483  1.32E-05  4.33E-04  0.00E+00  0.00E+00  0.00E+00  0.00E+00  1.32E-05  4.33E-04  4.57E-03  0.03395
    574.   17.422  1.30E-05  4.29E-04  0.00E+00  0.00E+00  0.00E+00  0.00E+00  1.30E-05  4.29E-04  4.60E-03  0.04720
    576.   17.361  1.36E-05  4.51E-04  0.00E+00  0.00E+00  0.00E+00  0.00E+00  1.36E-05  4.51E-04  4.63E-03  0.01456
    578.   17.301  1.34E-05  4.49E-04  0.00E+00  0.00E+00  0.00E+00  0.00E+00  1.34E-05  4.49E-04  4.66E-03  0.02202
    580.   17.241  1.36E-05  4.57E-04  0.00E+00  0.00E+00  0.00E+00  0.00E+00  1.36E-05  4.57E-04  4.68E-03  0.01479
    582.   17.182  1.36E-05  4.62E-04  0.00E+00  0.00E+00  0.00E+00  0.00E+00  1.36E-05  4.62E-04  4.71E-03  0.01066
    584.   17.123  1.35E-05  4.59E-04  0.00E+00  0.00E+00  0.00E+00  0.00E+00  1.35E-05  4.59E-04  4.74E-03  0.01789
    586.   17.065  1.31E-05  4.50E-04  0.00E+00  0.00E+00  0.00E+00  0.00E+00  1.31E-05  4.50E-04  4.76E-03  0.03671
    588.   17.007  1.27E-05  4.41E-04  0.00E+00  0.00E+00  0.00E+00  0.00E+00  1.27E-05  4.41E-04  4.79E-03  0.05746
    590.   16.949  1.34E-05  4.65E-04  0.00E+00  0.00E+00  0.00E+00  0.00E+00  1.34E-05  4.65E-04  4.81E-03  0.02361
    592.   16.892  1.38E-05  4.85E-04  0.00E+00  0.00E+00  0.00E+00  0.00E+00  1.38E-05  4.85E-04  4.84E-03  0.00174
    594.   16.835  1.38E-05  4.86E-04  0.00E+00  0.00E+00  0.00E+00  0.00E+00  1.38E-05  4.86E-04  4.87E-03  0.00259
    596.   16.779  1.36E-05  4.82E-04  0.00E+00  0.00E+00  0.00E+00  0.00E+00  1.36E-05  4.82E-04  4.90E-03  0.00846
    598.   16.722  1.34E-05  4.78E-04  0.00E+00  0.00E+00  0.00E+00  0.00E+00  1.34E-05  4.78E-04  4.92E-03  0.01845
    600.   16.667  1.34E-05  4.83E-04  0.00E+00  0.00E+00  0.00E+00  0.00E+00  1.34E-05  4.83E-04  4.95E-03  0.01712
    602.   16.611  1.34E-05  4.85E-04  0.00E+00  0.00E+00  0.00E+00  0.00E+00  1.34E-05  4.85E-04  4.98E-03  0.01695
    604.   16.556  1.34E-05  4.88E-04  0.00E+00  0.00E+00  0.00E+00  0.00E+00  1.34E-05  4.88E-04  5.00E-03  0.01654
    606.   16.502  1.32E-05  4.85E-04  0.00E+00  0.00E+00  0.00E+00  0.00E+00  1.32E-05  4.85E-04  5.03E-03  0.02172
    608.   16.447  1.31E-05  4.84E-04  0.00E+00  0.00E+00  0.00E+00  0.00E+00  1.31E-05  4.84E-04  5.06E-03  0.02538
    610.   16.393  1.30E-05  4.85E-04  0.00E+00  0.00E+00  0.00E+00  0.00E+00  1.30E-05  4.85E-04  5.08E-03  0.02796
    612.   16.340  1.31E-05  4.92E-04  0.00E+00  0.00E+00  0.00E+00  0.00E+00  1.31E-05  4.92E-04  5.11E-03  0.02461
    614.   16.287  1.35E-05  5.07E-04  0.00E+00  0.00E+00  0.00E+00  0.00E+00  1.35E-05  5.07E-04  5.14E-03  0.00970
    616.   16.234  1.37E-05  5.20E-04  0.00E+00  0.00E+00  0.00E+00  0.00E+00  1.37E-05  5.20E-04  5.16E-03  0.00211
    618.   16.181  1.37E-05  5.24E-04  0.00E+00  0.00E+00  0.00E+00  0.00E+00  1.37E-05  5.24E-04  5.19E-03  0.00133
    620.   16.129  1.35E-05  5.19E-04  0.00E+00  0.00E+00  0.00E+00  0.00E+00  1.35E-05  5.19E-04  5.22E-03  0.00493
    622.   16.077  1.34E-05  5.18E-04  0.00E+00  0.00E+00  0.00E+00  0.00E+00  1.34E-05  5.18E-04  5.24E-03  0.00842
    624.   16.026  1.35E-05  5.27E-04  0.00E+00  0.00E+00  0.00E+00  0.00E+00  1.35E-05  5.27E-04  5.27E-03  0.00496
    626.   15.974  1.37E-05  5.36E-04  0.00E+00  0.00E+00  0.00E+00  0.00E+00  1.37E-05  5.36E-04  5.30E-03  0.00032
    628.   15.924  1.36E-05  5.37E-04  0.00E+00  0.00E+00  0.00E+00  0.00E+00  1.36E-05  5.37E-04  5.33E-03  0.00064
    630.   15.873  1.36E-05  5.40E-04  0.00E+00  0.00E+00  0.00E+00  0.00E+00  1.36E-05  5.40E-04  5.35E-03  0.00052
    632.   15.823  1.37E-05  5.46E-04  0.00E+00  0.00E+00  0.00E+00  0.00E+00  1.37E-05  5.46E-04  5.38E-03  0.00014
    634.   15.773  1.37E-05  5.50E-04  0.00E+00  0.00E+00  0.00E+00  0.00E+00  1.37E-05  5.50E-04  5.41E-03  0.00002
    636.   15.723  1.37E-05  5.54E-04  0.00E+00  0.00E+00  0.00E+00  0.00E+00  1.37E-05  5.54E-04  5.44E-03  0.00000
    638.   15.674  1.37E-05  5.57E-04  0.00E+00  0.00E+00  0.00E+00  0.00E+00  1.37E-05  5.57E-04  5.46E-03  0.00000
    640.   15.625  1.37E-05  5.60E-04  0.00E+00  0.00E+00  0.00E+00  0.00E+00  1.37E-05  5.60E-04  5.49E-03  0.00000
    642.   15.576  1.37E-05  5.64E-04  0.00E+00  0.00E+00  0.00E+00  0.00E+00  1.37E-05  5.64E-04  5.52E-03  0.00000
    644.   15.528  1.37E-05  5.67E-04  0.00E+00  0.00E+00  0.00E+00  0.00E+00  1.37E-05  5.67E-04  5.55E-03  0.00000
    646.   15.480  1.37E-05  5.70E-04  0.00E+00  0.00E+00  0.00E+00  0.00E+00  1.37E-05  5.70E-04  5.57E-03  0.00000
    648.   15.432  1.37E-05  5.74E-04  0.00E+00  0.00E+00  0.00E+00  0.00E+00  1.37E-05  5.74E-04  5.60E-03  0.00000
    650.   15.385  1.37E-05  5.77E-04  0.00E+00  0.00E+00  0.00E+00  0.00E+00  1.37E-05  5.77E-04  5.63E-03  0.00000
    652.   15.337  1.36E-05  5.80E-04  0.00E+00  0.00E+00  0.00E+00  0.00E+00  1.36E-05  5.80E-04  5.65E-03  0.00000
    654.   15.291  1.36E-05  5.83E-04  0.00E+00  0.00E+00  0.00E+00  0.00E+00  1.36E-05  5.83E-04  5.68E-03  0.00000
    656.   15.244  1.36E-05  5.85E-04  0.00E+00  0.00E+00  0.00E+00  0.00E+00  1.36E-05  5.85E-04  5.71E-03  0.00000
    658.   15.198  1.36E-05  5.88E-04  0.00E+00  0.00E+00  0.00E+00  0.00E+00  1.36E-05  5.88E-04  5.74E-03  0.00000
    660.   15.152  1.36E-05  5.91E-04  0.00E+00  0.00E+00  0.00E+00  0.00E+00  1.36E-05  5.91E-04  5.76E-03  0.00000
    662.   15.106  1.36E-05  5.94E-04  0.00E+00  0.00E+00  0.00E+00  0.00E+00  1.36E-05  5.94E-04  5.79E-03  0.00000
    664.   15.060  1.36E-05  5.97E-04  0.00E+00  0.00E+00  0.00E+00  0.00E+00  1.36E-05  5.97E-04  5.82E-03  0.00000
    666.   15.015  1.36E-05  6.01E-04  0.00E+00  0.00E+00  0.00E+00  0.00E+00  1.36E-05  6.01E-04  5.84E-03  0.00000
    668.   14.970  1.36E-05  6.06E-04  0.00E+00  0.00E+00  0.00E+00  0.00E+00  1.36E-05  6.06E-04  5.87E-03  0.00000
    670.   14.925  1.35E-05  6.08E-04  0.00E+00  0.00E+00  0.00E+00  0.00E+00  1.35E-05  6.08E-04  5.90E-03  0.00000
    672.   14.881  1.35E-05  6.09E-04  0.00E+00  0.00E+00  0.00E+00  0.00E+00  1.35E-05  6.09E-04  5.93E-03  0.00000
    674.   14.837  1.35E-05  6.11E-04  0.00E+00  0.00E+00  0.00E+00  0.00E+00  1.35E-05  6.11E-04  5.95E-03  0.00000
    676.   14.793  1.34E-05  6.14E-04  0.00E+00  0.00E+00  0.00E+00  0.00E+00  1.34E-05  6.14E-04  5.98E-03  0.00000
    678.   14.749  1.34E-05  6.17E-04  0.00E+00  0.00E+00  0.00E+00  0.00E+00  1.34E-05  6.17E-04  6.01E-03  0.00000
    680.   14.706  1.34E-05  6.20E-04  0.00E+00  0.00E+00  0.00E+00  0.00E+00  1.34E-05  6.20E-04  6.03E-03  0.00000
    682.   14.663  1.34E-05  6.23E-04  0.00E+00  0.00E+00  0.00E+00  0.00E+00  1.34E-05  6.23E-04  6.06E-03  0.00000
    684.   14.620  1.34E-05  6.25E-04  0.00E+00  0.00E+00  0.00E+00  0.00E+00  1.34E-05  6.25E-04  6.09E-03  0.00000
    686.   14.577  1.33E-05  6.27E-04  0.00E+00  0.00E+00  0.00E+00  0.00E+00  1.33E-05  6.27E-04  6.11E-03  0.00000
    688.   14.535  1.33E-05  6.31E-04  0.00E+00  0.00E+00  0.00E+00  0.00E+00  1.33E-05  6.31E-04  6.14E-03  0.00000
    690.   14.493  1.33E-05  6.33E-04  0.00E+00  0.00E+00  0.00E+00  0.00E+00  1.33E-05  6.33E-04  6.17E-03  0.00000
    692.   14.451  1.32E-05  6.34E-04  0.00E+00  0.00E+00  0.00E+00  0.00E+00  1.32E-05  6.34E-04  6.19E-03  0.00000
    694.   14.409  1.32E-05  6.37E-04  0.00E+00  0.00E+00  0.00E+00  0.00E+00  1.32E-05  6.37E-04  6.22E-03  0.00000
    696.   14.368  1.32E-05  6.39E-04  0.00E+00  0.00E+00  0.00E+00  0.00E+00  1.32E-05  6.39E-04  6.25E-03  0.00000
    698.   14.327  1.32E-05  6.41E-04  0.00E+00  0.00E+00  0.00E+00  0.00E+00  1.32E-05  6.41E-04  6.27E-03  0.00000
    700.   14.286  1.31E-05  6.42E-04  0.00E+00  0.00E+00  0.00E+00  0.00E+00  1.31E-05  6.42E-04  6.30E-03  0.00002
    702.   14.245  1.31E-05  6.44E-04  0.00E+00  0.00E+00  0.00E+00  0.00E+00  1.31E-05  6.44E-04  6.32E-03  0.00002
    704.   14.205  1.30E-05  6.47E-04  0.00E+00  0.00E+00  0.00E+00  0.00E+00  1.30E-05  6.47E-04  6.35E-03  0.00006
    706.   14.164  1.30E-05  6.48E-04  0.00E+00  0.00E+00  0.00E+00  0.00E+00  1.30E-05  6.48E-04  6.38E-03  0.00028
    708.   14.124  1.29E-05  6.45E-04  0.00E+00  0.00E+00  0.00E+00  0.00E+00  1.29E-05  6.45E-04  6.40E-03  0.00170
    710.   14.085  1.27E-05  6.41E-04  0.00E+00  0.00E+00  0.00E+00  0.00E+00  1.27E-05  6.41E-04  6.43E-03  0.00501
    712.   14.045  1.26E-05  6.40E-04  0.00E+00  0.00E+00  0.00E+00  0.00E+00  1.26E-05  6.40E-04  6.45E-03  0.00805
    714.   14.006  1.25E-05  6.39E-04  0.00E+00  0.00E+00  0.00E+00  0.00E+00  1.25E-05  6.39E-04  6.48E-03  0.01106
    716.   13.966  1.23E-05  6.29E-04  0.00E+00  0.00E+00  0.00E+00  0.00E+00  1.23E-05  6.29E-04  6.50E-03  0.01899
    718.   13.928  1.25E-05  6.46E-04  0.00E+00  0.00E+00  0.00E+00  0.00E+00  1.25E-05  6.46E-04  6.53E-03  0.00917
    720.   13.889  1.28E-05  6.63E-04  0.00E+00  0.00E+00  0.00E+00  0.00E+00  1.28E-05  6.63E-04  6.55E-03  0.00185
    722.   13.850  1.19E-05  6.19E-04  0.00E+00  0.00E+00  0.00E+00  0.00E+00  1.19E-05  6.19E-04  6.58E-03  0.03695
    724.   13.812  1.09E-05  5.71E-04  0.00E+00  0.00E+00  0.00E+00  0.00E+00  1.09E-05  5.71E-04  6.60E-03  0.08826
    726.   13.774  1.03E-05  5.45E-04  0.00E+00  0.00E+00  0.00E+00  0.00E+00  1.03E-05  5.45E-04  6.62E-03  0.12947
    728.   13.736  1.08E-05  5.75E-04  0.00E+00  0.00E+00  0.00E+00  0.00E+00  1.08E-05  5.75E-04  6.64E-03  0.09762
    730.   13.699  1.17E-05  6.23E-04  0.00E+00  0.00E+00  0.00E+00  0.00E+00  1.17E-05  6.23E-04  6.66E-03  0.04687
    732.   13.661  1.15E-05  6.14E-04  0.00E+00  0.00E+00  0.00E+00  0.00E+00  1.15E-05  6.14E-04  6.69E-03  0.05688
    734.   13.624  1.10E-05  5.91E-04  0.00E+00  0.00E+00  0.00E+00  0.00E+00  1.10E-05  5.91E-04  6.71E-03  0.08203
    736.   13.587  1.09E-05  5.91E-04  0.00E+00  0.00E+00  0.00E+00  0.00E+00  1.09E-05  5.91E-04  6.73E-03  0.08418
    738.   13.550  1.11E-05  6.05E-04  0.00E+00  0.00E+00  0.00E+00  0.00E+00  1.11E-05  6.05E-04  6.75E-03  0.07125
    740.   13.514  1.17E-05  6.38E-04  0.00E+00  0.00E+00  0.00E+00  0.00E+00  1.17E-05  6.38E-04  6.78E-03  0.04054
    742.   13.477  1.14E-05  6.26E-04  0.00E+00  0.00E+00  0.00E+00  0.00E+00  1.14E-05  6.26E-04  6.80E-03  0.06610
    744.   13.441  1.05E-05  5.80E-04  0.00E+00  0.00E+00  0.00E+00  0.00E+00  1.05E-05  5.80E-04  6.82E-03  0.12407
    746.   13.405  9.71E-06  5.40E-04  0.00E+00  0.00E+00  0.00E+00  0.00E+00  9.71E-06  5.40E-04  6.84E-03  0.17757
    748.   13.369  9.42E-06  5.27E-04  0.00E+00  0.00E+00  0.00E+00  0.00E+00  9.42E-06  5.27E-04  6.86E-03  0.19702
    750.   13.333  8.96E-06  5.04E-04  0.00E+00  0.00E+00  0.00E+00  0.00E+00  8.96E-06  5.04E-04  6.88E-03  0.22748
    752.   13.298  8.91E-06  5.04E-04  0.00E+00  0.00E+00  0.00E+00  0.00E+00  8.91E-06  5.04E-04  6.89E-03  0.23265
    754.   13.263  9.49E-06  5.39E-04  0.00E+00  0.00E+00  0.00E+00  0.00E+00  9.49E-06  5.39E-04  6.91E-03  0.19048
    756.   13.228  8.75E-06  5.00E-04  0.00E+00  0.00E+00  0.00E+00  0.00E+00  8.75E-06  5.00E-04  6.93E-03  0.24152
    758.   13.193  6.87E-06  3.95E-04  0.00E+00  0.00E+00  0.00E+00  0.00E+00  6.87E-06  3.95E-04  6.94E-03  0.38762
    760.   13.158  6.17E-06  3.56E-04  0.00E+00  0.00E+00  0.00E+00  0.00E+00  6.17E-06  3.56E-04  6.96E-03  0.45252
    762.   13.123  5.62E-06  3.26E-04  0.00E+00  0.00E+00  0.00E+00  0.00E+00  5.62E-06  3.26E-04  6.97E-03  0.49964
    764.   13.089  5.06E-06  2.96E-04  0.00E+00  0.00E+00  0.00E+00  0.00E+00  5.06E-06  2.96E-04  6.98E-03  0.54739
    766.   13.055  5.00E-06  2.93E-04  0.00E+00  0.00E+00  0.00E+00  0.00E+00  5.00E-06  2.93E-04  6.99E-03  0.55550
    768.   13.021  5.65E-06  3.33E-04  0.00E+00  0.00E+00  0.00E+00  0.00E+00  5.65E-06  3.33E-04  7.00E-03  0.50383
    770.   12.987  5.83E-06  3.46E-04  0.00E+00  0.00E+00  0.00E+00  0.00E+00  5.83E-06  3.46E-04  7.01E-03  0.48978
    772.   12.953  4.55E-06  2.71E-04  0.00E+00  0.00E+00  0.00E+00  0.00E+00  4.55E-06  2.71E-04  7.02E-03  0.59744
    774.   12.920  4.77E-06  2.85E-04  0.00E+00  0.00E+00  0.00E+00  0.00E+00  4.77E-06  2.85E-04  7.03E-03  0.57994
    776.   12.887  6.58E-06  3.96E-04  0.00E+00  0.00E+00  0.00E+00  0.00E+00  6.58E-06  3.96E-04  7.04E-03  0.42990
    778.   12.853  6.10E-06  3.69E-04  0.00E+00  0.00E+00  0.00E+00  0.00E+00  6.10E-06  3.69E-04  7.06E-03  0.47039
    780.   12.821  4.59E-06  2.79E-04  0.00E+00  0.00E+00  0.00E+00  0.00E+00  4.59E-06  2.79E-04  7.06E-03  0.59558
    782.   12.788  4.56E-06  2.79E-04  0.00E+00  0.00E+00  0.00E+00  0.00E+00  4.56E-06  2.79E-04  7.07E-03  0.59694
    784.   12.755  6.18E-06  3.80E-04  0.00E+00  0.00E+00  0.00E+00  0.00E+00  6.18E-06  3.80E-04  7.09E-03  0.46034
    786.   12.723  4.77E-06  2.95E-04  0.00E+00  0.00E+00  0.00E+00  0.00E+00  4.77E-06  2.95E-04  7.10E-03  0.57850
    788.   12.690  3.54E-06  2.20E-04  0.00E+00  0.00E+00  0.00E+00  0.00E+00  3.54E-06  2.20E-04  7.10E-03  0.68414
    790.   12.658  4.06E-06  2.54E-04  0.00E+00  0.00E+00  0.00E+00  0.00E+00  4.06E-06  2.54E-04  7.11E-03  0.62909
    792.   12.626  5.67E-06  3.56E-04  0.00E+00  0.00E+00  0.00E+00  0.00E+00  5.67E-06  3.56E-04  7.12E-03  0.47527
    794.   12.594  6.61E-06  4.16E-04  0.00E+00  0.00E+00  0.00E+00  0.00E+00  6.61E-06  4.16E-04  7.14E-03  0.40854
    796.   12.563  6.90E-06  4.37E-04  0.00E+00  0.00E+00  0.00E+00  0.00E+00  6.90E-06  4.37E-04  7.15E-03  0.38958
    798.   12.531  7.21E-06  4.59E-04  0.00E+00  0.00E+00  0.00E+00  0.00E+00  7.21E-06  4.59E-04  7.16E-03  0.36206
    800.   12.500  5.65E-06  3.62E-04  0.00E+00  0.00E+00  0.00E+00  0.00E+00  5.65E-06  3.62E-04  7.17E-03  0.49685
    802.   12.469  4.63E-06  2.97E-04  0.00E+00  0.00E+00  0.00E+00  0.00E+00  4.63E-06  2.97E-04  7.18E-03  0.58206
    804.   12.438  5.33E-06  3.45E-04  0.00E+00  0.00E+00  0.00E+00  0.00E+00  5.33E-06  3.45E-04  7.19E-03  0.52020
    806.   12.407  4.49E-06  2.92E-04  0.00E+00  0.00E+00  0.00E+00  0.00E+00  4.49E-06  2.92E-04  7.20E-03  0.59232
    808.   12.376  4.82E-06  3.15E-04  0.00E+00  0.00E+00  0.00E+00  0.00E+00  4.82E-06  3.15E-04  7.21E-03  0.56252
    810.   12.346  3.66E-06  2.40E-04  0.00E+00  0.00E+00  0.00E+00  0.00E+00  3.66E-06  2.40E-04  7.22E-03  0.66461
    812.   12.315  3.42E-06  2.26E-04  0.00E+00  0.00E+00  0.00E+00  0.00E+00  3.42E-06  2.26E-04  7.23E-03  0.68535
    814.   12.285  4.72E-06  3.13E-04  0.00E+00  0.00E+00  0.00E+00  0.00E+00  4.72E-06  3.13E-04  7.24E-03  0.56872
    816.   12.255  4.00E-06  2.66E-04  0.00E+00  0.00E+00  0.00E+00  0.00E+00  4.00E-06  2.66E-04  7.24E-03  0.63293
    818.   12.225  2.86E-06  1.91E-04  0.00E+00  0.00E+00  0.00E+00  0.00E+00  2.86E-06  1.91E-04  7.25E-03  0.73546
    820.   12.195  2.77E-06  1.86E-04  0.00E+00  0.00E+00  0.00E+00  0.00E+00  2.77E-06  1.86E-04  7.26E-03  0.74368
    822.   12.165  2.75E-06  1.86E-04  0.00E+00  0.00E+00  0.00E+00  0.00E+00  2.75E-06  1.86E-04  7.26E-03  0.74514
    824.   12.136  3.09E-06  2.10E-04  0.00E+00  0.00E+00  0.00E+00  0.00E+00  3.09E-06  2.10E-04  7.27E-03  0.71306
    826.   12.107  3.72E-06  2.53E-04  0.00E+00  0.00E+00  0.00E+00  0.00E+00  3.72E-06  2.53E-04  7.28E-03  0.65407
    828.   12.077  4.08E-06  2.80E-04  0.00E+00  0.00E+00  0.00E+00  0.00E+00  4.08E-06  2.80E-04  7.28E-03  0.61982
    830.   12.048  2.99E-06  2.06E-04  0.00E+00  0.00E+00  0.00E+00  0.00E+00  2.99E-06  2.06E-04  7.29E-03  0.72053
    832.   12.019  2.54E-06  1.76E-04  0.00E+00  0.00E+00  0.00E+00  0.00E+00  2.54E-06  1.76E-04  7.29E-03  0.76173
    834.   11.990  2.60E-06  1.81E-04  0.00E+00  0.00E+00  0.00E+00  0.00E+00  2.60E-06  1.81E-04  7.30E-03  0.75513
    836.   11.962  2.77E-06  1.94E-04  0.00E+00  0.00E+00  0.00E+00  0.00E+00  2.77E-06  1.94E-04  7.31E-03  0.73815
    838.   11.933  3.04E-06  2.14E-04  0.00E+00  0.00E+00  0.00E+00  0.00E+00  3.04E-06  2.14E-04  7.31E-03  0.71182
    840.   11.905  3.90E-06  2.75E-04  0.00E+00  0.00E+00  0.00E+00  0.00E+00  3.90E-06  2.75E-04  7.32E-03  0.63111
    842.   11.876  3.20E-06  2.27E-04  0.00E+00  0.00E+00  0.00E+00  0.00E+00  3.20E-06  2.27E-04  7.33E-03  0.69409
    844.   11.848  2.50E-06  1.78E-04  0.00E+00  0.00E+00  0.00E+00  0.00E+00  2.50E-06  1.78E-04  7.33E-03  0.75965
    846.   11.820  2.40E-06  1.71E-04  0.00E+00  0.00E+00  0.00E+00  0.00E+00  2.40E-06  1.71E-04  7.34E-03  0.76869
    848.   11.792  2.77E-06  1.99E-04  0.00E+00  0.00E+00  0.00E+00  0.00E+00  2.77E-06  1.99E-04  7.34E-03  0.73276
    850.   11.765  3.99E-06  2.89E-04  0.00E+00  0.00E+00  0.00E+00  0.00E+00  3.99E-06  2.89E-04  7.35E-03  0.61618
    852.   11.737  5.13E-06  3.73E-04  0.00E+00  0.00E+00  0.00E+00  0.00E+00  5.13E-06  3.73E-04  7.36E-03  0.50841
    854.   11.710  4.47E-06  3.26E-04  0.00E+00  0.00E+00  0.00E+00  0.00E+00  4.47E-06  3.26E-04  7.37E-03  0.56955
    856.   11.682  3.04E-06  2.23E-04  0.00E+00  0.00E+00  0.00E+00  0.00E+00  3.04E-06  2.23E-04  7.37E-03  0.70529
    858.   11.655  2.34E-06  1.72E-04  0.00E+00  0.00E+00  0.00E+00  0.00E+00  2.34E-06  1.72E-04  7.38E-03  0.77148
    860.   11.628  2.35E-06  1.74E-04  0.00E+00  0.00E+00  0.00E+00  0.00E+00  2.35E-06  1.74E-04  7.38E-03  0.76978
    862.   11.601  2.17E-06  1.61E-04  0.00E+00  0.00E+00  0.00E+00  0.00E+00  2.17E-06  1.61E-04  7.39E-03  0.78712
    864.   11.574  2.70E-06  2.02E-04  0.00E+00  0.00E+00  0.00E+00  0.00E+00  2.70E-06  2.02E-04  7.39E-03  0.73372
    866.   11.547  2.71E-06  2.03E-04  0.00E+00  0.00E+00  0.00E+00  0.00E+00  2.71E-06  2.03E-04  7.40E-03  0.73230
    868.   11.521  2.08E-06  1.57E-04  0.00E+00  0.00E+00  0.00E+00  0.00E+00  2.08E-06  1.57E-04  7.40E-03  0.79313
    870.   11.494  2.57E-06  1.95E-04  0.00E+00  0.00E+00  0.00E+00  0.00E+00  2.57E-06  1.95E-04  7.41E-03  0.74447
    872.   11.468  2.60E-06  1.97E-04  0.00E+00  0.00E+00  0.00E+00  0.00E+00  2.60E-06  1.97E-04  7.41E-03  0.74103
    874.   11.442  2.03E-06  1.55E-04  0.00E+00  0.00E+00  0.00E+00  0.00E+00  2.03E-06  1.55E-04  7.42E-03  0.79606
    876.   11.416  2.03E-06  1.56E-04  0.00E+00  0.00E+00  0.00E+00  0.00E+00  2.03E-06  1.56E-04  7.42E-03  0.79589
    878.   11.390  2.43E-06  1.88E-04  0.00E+00  0.00E+00  0.00E+00  0.00E+00  2.43E-06  1.88E-04  7.43E-03  0.75393
    880.   11.364  2.55E-06  1.97E-04  0.00E+00  0.00E+00  0.00E+00  0.00E+00  2.55E-06  1.97E-04  7.43E-03  0.74165
    882.   11.338  2.44E-06  1.90E-04  0.00E+00  0.00E+00  0.00E+00  0.00E+00  2.44E-06  1.90E-04  7.44E-03  0.75153
    884.   11.312  2.65E-06  2.07E-04  0.00E+00  0.00E+00  0.00E+00  0.00E+00  2.65E-06  2.07E-04  7.44E-03  0.72979
    886.   11.287  2.70E-06  2.12E-04  0.00E+00  0.00E+00  0.00E+00  0.00E+00  2.70E-06  2.12E-04  7.45E-03  0.72364
    888.   11.261  2.85E-06  2.25E-04  0.00E+00  0.00E+00  0.00E+00  0.00E+00  2.85E-06  2.25E-04  7.45E-03  0.70742
    890.   11.236  2.47E-06  1.96E-04  0.00E+00  0.00E+00  0.00E+00  0.00E+00  2.47E-06  1.96E-04  7.46E-03  0.74517
    892.   11.211  2.02E-06  1.61E-04  0.00E+00  0.00E+00  0.00E+00  0.00E+00  2.02E-06  1.61E-04  7.46E-03  0.79042
    894.   11.186  1.79E-06  1.43E-04  0.00E+00  0.00E+00  0.00E+00  0.00E+00  1.79E-06  1.43E-04  7.47E-03  0.81377
    896.   11.161  1.86E-06  1.49E-04  0.00E+00  0.00E+00  0.00E+00  0.00E+00  1.86E-06  1.49E-04  7.47E-03  0.80628
    898.   11.136  1.91E-06  1.54E-04  0.00E+00  0.00E+00  0.00E+00  0.00E+00  1.91E-06  1.54E-04  7.47E-03  0.79985
    900.   11.111  1.77E-06  1.43E-04  0.00E+00  0.00E+00  0.00E+00  0.00E+00  1.77E-06  1.43E-04  7.48E-03  0.81413
    902.   11.086  1.73E-06  1.40E-04  0.00E+00  0.00E+00  0.00E+00  0.00E+00  1.73E-06  1.40E-04  7.48E-03  0.81821
    904.   11.062  1.83E-06  1.50E-04  0.00E+00  0.00E+00  0.00E+00  0.00E+00  1.83E-06  1.50E-04  7.48E-03  0.80606
    906.   11.038  2.10E-06  1.72E-04  0.00E+00  0.00E+00  0.00E+00  0.00E+00  2.10E-06  1.72E-04  7.49E-03  0.77771
    908.   11.013  2.59E-06  2.13E-04  0.00E+00  0.00E+00  0.00E+00  0.00E+00  2.59E-06  2.13E-04  7.49E-03  0.72545
    910.   10.989  2.46E-06  2.04E-04  0.00E+00  0.00E+00  0.00E+00  0.00E+00  2.46E-06  2.04E-04  7.50E-03  0.73769
    912.   10.965  1.81E-06  1.51E-04  0.00E+00  0.00E+00  0.00E+00  0.00E+00  1.81E-06  1.51E-04  7.50E-03  0.80468
    914.   10.941  1.85E-06  1.55E-04  0.00E+00  0.00E+00  0.00E+00  0.00E+00  1.85E-06  1.55E-04  7.50E-03  0.79977
    916.   10.917  1.78E-06  1.49E-04  0.00E+00  0.00E+00  0.00E+00  0.00E+00  1.78E-06  1.49E-04  7.51E-03  0.80655
    918.   10.893  1.86E-06  1.56E-04  0.00E+00  0.00E+00  0.00E+00  0.00E+00  1.86E-06  1.56E-04  7.51E-03  0.79746
    920.   10.870  2.03E-06  1.72E-04  0.00E+00  0.00E+00  0.00E+00  0.00E+00  2.03E-06  1.72E-04  7.52E-03  0.77798
    922.   10.846  2.45E-06  2.08E-04  0.00E+00  0.00E+00  0.00E+00  0.00E+00  2.45E-06  2.08E-04  7.52E-03  0.73159
    924.   10.823  2.33E-06  1.99E-04  0.00E+00  0.00E+00  0.00E+00  0.00E+00  2.33E-06  1.99E-04  7.53E-03  0.74322
    926.   10.799  2.03E-06  1.74E-04  0.00E+00  0.00E+00  0.00E+00  0.00E+00  2.03E-06  1.74E-04  7.53E-03  0.77565
    928.   10.776  1.66E-06  1.43E-04  0.00E+00  0.00E+00  0.00E+00  0.00E+00  1.66E-06  1.43E-04  7.53E-03  0.81414
    930.   10.753  1.66E-06  1.43E-04  0.00E+00  0.00E+00  0.00E+00  0.00E+00  1.66E-06  1.43E-04  7.54E-03  0.81395
    932.   10.730  1.57E-06  1.37E-04  0.00E+00  0.00E+00  0.00E+00  0.00E+00  1.57E-06  1.37E-04  7.54E-03  0.82256
    934.   10.707  1.55E-06  1.35E-04  0.00E+00  0.00E+00  0.00E+00  0.00E+00  1.55E-06  1.35E-04  7.54E-03  0.82437
    936.   10.684  1.56E-06  1.37E-04  0.00E+00  0.00E+00  0.00E+00  0.00E+00  1.56E-06  1.37E-04  7.55E-03  0.82258
    938.   10.661  1.56E-06  1.37E-04  0.00E+00  0.00E+00  0.00E+00  0.00E+00  1.56E-06  1.37E-04  7.55E-03  0.82182
    940.   10.638  1.66E-06  1.47E-04  0.00E+00  0.00E+00  0.00E+00  0.00E+00  1.66E-06  1.47E-04  7.55E-03  0.80798
    942.   10.616  1.70E-06  1.51E-04  0.00E+00  0.00E+00  0.00E+00  0.00E+00  1.70E-06  1.51E-04  7.56E-03  0.80179
    944.   10.593  1.70E-06  1.51E-04  0.00E+00  0.00E+00  0.00E+00  0.00E+00  1.70E-06  1.51E-04  7.56E-03  0.80205
    946.   10.571  1.93E-06  1.73E-04  0.00E+00  0.00E+00  0.00E+00  0.00E+00  1.93E-06  1.73E-04  7.56E-03  0.77428
    948.   10.549  2.30E-06  2.07E-04  0.00E+00  0.00E+00  0.00E+00  0.00E+00  2.30E-06  2.07E-04  7.57E-03  0.73139
    950.   10.526  1.76E-06  1.59E-04  0.00E+00  0.00E+00  0.00E+00  0.00E+00  1.76E-06  1.59E-04  7.57E-03  0.79242
    952.   10.504  1.66E-06  1.51E-04  0.00E+00  0.00E+00  0.00E+00  0.00E+00  1.66E-06  1.51E-04  7.57E-03  0.80409
    954.   10.482  1.92E-06  1.75E-04  0.00E+00  0.00E+00  0.00E+00  0.00E+00  1.92E-06  1.75E-04  7.58E-03  0.77250
    956.   10.460  1.77E-06  1.62E-04  0.00E+00  0.00E+00  0.00E+00  0.00E+00  1.77E-06  1.62E-04  7.58E-03  0.78949
    958.   10.438  1.50E-06  1.38E-04  0.00E+00  0.00E+00  0.00E+00  0.00E+00  1.50E-06  1.38E-04  7.58E-03  0.82119
    960.   10.417  1.50E-06  1.38E-04  0.00E+00  0.00E+00  0.00E+00  0.00E+00  1.50E-06  1.38E-04  7.59E-03  0.82253
    962.   10.395  1.33E-06  1.24E-04  0.00E+00  0.00E+00  0.00E+00  0.00E+00  1.33E-06  1.24E-04  7.59E-03  0.84118
    964.   10.373  1.33E-06  1.24E-04  0.00E+00  0.00E+00  0.00E+00  0.00E+00  1.33E-06  1.24E-04  7.59E-03  0.83931
    966.   10.352  1.55E-06  1.45E-04  0.00E+00  0.00E+00  0.00E+00  0.00E+00  1.55E-06  1.45E-04  7.60E-03  0.81062
    968.   10.331  1.52E-06  1.42E-04  0.00E+00  0.00E+00  0.00E+00  0.00E+00  1.52E-06  1.42E-04  7.60E-03  0.81224
    970.   10.309  1.65E-06  1.55E-04  0.00E+00  0.00E+00  0.00E+00  0.00E+00  1.65E-06  1.55E-04  7.60E-03  0.79474
    972.   10.288  2.01E-06  1.90E-04  0.00E+00  0.00E+00  0.00E+00  0.00E+00  2.01E-06  1.90E-04  7.61E-03  0.74908
    974.   10.267  1.94E-06  1.84E-04  0.00E+00  0.00E+00  0.00E+00  0.00E+00  1.94E-06  1.84E-04  7.61E-03  0.75712
    976.   10.246  1.99E-06  1.90E-04  0.00E+00  0.00E+00  0.00E+00  0.00E+00  1.99E-06  1.90E-04  7.61E-03  0.74863
    978.   10.225  1.61E-06  1.54E-04  0.00E+00  0.00E+00  0.00E+00  0.00E+00  1.61E-06  1.54E-04  7.62E-03  0.79423
    980.   10.204  1.32E-06  1.27E-04  0.00E+00  0.00E+00  0.00E+00  0.00E+00  1.32E-06  1.27E-04  7.62E-03  0.82853
    982.   10.183  1.34E-06  1.30E-04  0.00E+00  0.00E+00  0.00E+00  0.00E+00  1.34E-06  1.30E-04  7.62E-03  0.82287
    984.   10.163  1.32E-06  1.27E-04  0.00E+00  0.00E+00  0.00E+00  0.00E+00  1.32E-06  1.27E-04  7.63E-03  0.82489
    986.   10.142  1.18E-06  1.15E-04  0.00E+00  0.00E+00  0.00E+00  0.00E+00  1.18E-06  1.15E-04  7.63E-03  0.83830
    988.   10.121  1.15E-06  1.13E-04  0.00E+00  0.00E+00  0.00E+00  0.00E+00  1.15E-06  1.13E-04  7.63E-03  0.83613
    990.   10.101  1.18E-06  1.15E-04  0.00E+00  0.00E+00  0.00E+00  0.00E+00  1.18E-06  1.15E-04  7.63E-03  0.82766
    992.   10.081  1.16E-06  1.15E-04  0.00E+00  0.00E+00  0.00E+00  0.00E+00  1.16E-06  1.15E-04  7.64E-03  0.81992
    994.   10.060  1.18E-06  1.17E-04  0.00E+00  0.00E+00  0.00E+00  0.00E+00  1.18E-06  1.17E-04  7.64E-03  0.80901
    996.   10.040  1.21E-06  1.20E-04  0.00E+00  0.00E+00  0.00E+00  0.00E+00  1.21E-06  1.20E-04  7.64E-03  0.79304
    998.   10.020  1.44E-06  1.44E-04  0.00E+00  0.00E+00  0.00E+00  0.00E+00  1.44E-06  1.44E-04  7.64E-03  0.74998
   1000.   10.000  1.62E-06  1.62E-04  0.00E+00  0.00E+00  0.00E+00  0.00E+00  1.62E-06  1.62E-04  7.65E-03  0.71495
   1002.    9.980  1.48E-06  1.48E-04  0.00E+00  0.00E+00  0.00E+00  0.00E+00  1.48E-06  1.48E-04  7.65E-03  0.71290
   1004.    9.960  1.56E-06  1.58E-04  0.00E+00  0.00E+00  0.00E+00  0.00E+00  1.56E-06  1.58E-04  7.65E-03  0.68604
   1006.    9.940  1.50E-06  1.52E-04  0.00E+00  0.00E+00  0.00E+00  0.00E+00  1.50E-06  1.52E-04  7.66E-03  0.66943
   1008.    9.921  1.56E-06  1.59E-04  0.00E+00  0.00E+00  0.00E+00  0.00E+00  1.56E-06  1.59E-04  7.66E-03  0.65193
   1010.    9.901  2.02E-06  2.06E-04  0.00E+00  0.00E+00  0.00E+00  0.00E+00  2.02E-06  2.06E-04  7.66E-03  0.58524
   1012.    9.881  2.08E-06  2.13E-04  0.00E+00  0.00E+00  0.00E+00  0.00E+00  2.08E-06  2.13E-04  7.67E-03  0.55450
   1014.    9.862  2.20E-06  2.26E-04  0.00E+00  0.00E+00  0.00E+00  0.00E+00  2.20E-06  2.26E-04  7.67E-03  0.52739
   1016.    9.843  2.08E-06  2.14E-04  0.00E+00  0.00E+00  0.00E+00  0.00E+00  2.08E-06  2.14E-04  7.67E-03  0.52328
   1018.    9.823  2.19E-06  2.27E-04  0.00E+00  0.00E+00  0.00E+00  0.00E+00  2.19E-06  2.27E-04  7.68E-03  0.48661
   1020.    9.804  1.92E-06  2.00E-04  0.00E+00  0.00E+00  0.00E+00  0.00E+00  1.92E-06  2.00E-04  7.68E-03  0.49097
   1022.    9.785  1.83E-06  1.91E-04  0.00E+00  0.00E+00  0.00E+00  0.00E+00  1.83E-06  1.91E-04  7.69E-03  0.48313
   1024.    9.766  1.79E-06  1.88E-04  0.00E+00  0.00E+00  0.00E+00  0.00E+00  1.79E-06  1.88E-04  7.69E-03  0.47691
   1026.    9.747  1.89E-06  1.99E-04  0.00E+00  0.00E+00  0.00E+00  0.00E+00  1.89E-06  1.99E-04  7.69E-03  0.47144
   1028.    9.728  2.48E-06  2.62E-04  0.00E+00  0.00E+00  0.00E+00  0.00E+00  2.48E-06  2.62E-04  7.70E-03  0.41522
   1030.    9.709  2.48E-06  2.63E-04  0.00E+00  0.00E+00  0.00E+00  0.00E+00  2.48E-06  2.63E-04  7.70E-03  0.40532
   1032.    9.690  2.00E-06  2.13E-04  0.00E+00  0.00E+00  0.00E+00  0.00E+00  2.00E-06  2.13E-04  7.71E-03  0.44864
   1034.    9.671  1.81E-06  1.93E-04  0.00E+00  0.00E+00  0.00E+00  0.00E+00  1.81E-06  1.93E-04  7.71E-03  0.45473
   1036.    9.653  1.82E-06  1.96E-04  0.00E+00  0.00E+00  0.00E+00  0.00E+00  1.82E-06  1.96E-04  7.72E-03  0.43189
   1038.    9.634  2.09E-06  2.25E-04  0.00E+00  0.00E+00  0.00E+00  0.00E+00  2.09E-06  2.25E-04  7.72E-03  0.38682
   1040.    9.615  2.12E-06  2.29E-04  0.00E+00  0.00E+00  0.00E+00  0.00E+00  2.12E-06  2.29E-04  7.72E-03  0.37860
   1042.    9.597  1.63E-06  1.77E-04  0.00E+00  0.00E+00  0.00E+00  0.00E+00  1.63E-06  1.77E-04  7.73E-03  0.54883
   1044.    9.579  1.36E-06  1.48E-04  0.00E+00  0.00E+00  0.00E+00  0.00E+00  1.36E-06  1.48E-04  7.73E-03  0.66268
   1046.    9.560  1.53E-06  1.67E-04  0.00E+00  0.00E+00  0.00E+00  0.00E+00  1.53E-06  1.67E-04  7.73E-03  0.54547
   1048.    9.542  2.04E-06  2.24E-04  0.00E+00  0.00E+00  0.00E+00  0.00E+00  2.04E-06  2.24E-04  7.74E-03  0.41211
   1050.    9.524  2.44E-06  2.69E-04  0.00E+00  0.00E+00  0.00E+00  0.00E+00  2.44E-06  2.69E-04  7.74E-03  0.34657
   1052.    9.506  2.34E-06  2.59E-04  0.00E+00  0.00E+00  0.00E+00  0.00E+00  2.34E-06  2.59E-04  7.75E-03  0.33760
   1054.    9.488  2.26E-06  2.51E-04  0.00E+00  0.00E+00  0.00E+00  0.00E+00  2.26E-06  2.51E-04  7.75E-03  0.33238
   1056.    9.470  2.37E-06  2.65E-04  0.00E+00  0.00E+00  0.00E+00  0.00E+00  2.37E-06  2.65E-04  7.76E-03  0.32616
   1058.    9.452  2.20E-06  2.47E-04  0.00E+00  0.00E+00  0.00E+00  0.00E+00  2.20E-06  2.47E-04  7.76E-03  0.37256
   1060.    9.434  2.12E-06  2.39E-04  0.00E+00  0.00E+00  0.00E+00  0.00E+00  2.12E-06  2.39E-04  7.76E-03  0.41974
   1062.    9.416  1.88E-06  2.12E-04  0.00E+00  0.00E+00  0.00E+00  0.00E+00  1.88E-06  2.12E-04  7.77E-03  0.48142
   1064.    9.398  1.87E-06  2.12E-04  0.00E+00  0.00E+00  0.00E+00  0.00E+00  1.87E-06  2.12E-04  7.77E-03  0.54522
   1066.    9.381  2.31E-06  2.62E-04  0.00E+00  0.00E+00  0.00E+00  0.00E+00  2.31E-06  2.62E-04  7.78E-03  0.56094
   1068.    9.363  1.58E-06  1.80E-04  0.00E+00  0.00E+00  0.00E+00  0.00E+00  1.58E-06  1.80E-04  7.78E-03  0.69325
   1070.    9.346  1.03E-06  1.18E-04  0.00E+00  0.00E+00  0.00E+00  0.00E+00  1.03E-06  1.18E-04  7.78E-03  0.79833
   1072.    9.328  1.36E-06  1.56E-04  0.00E+00  0.00E+00  0.00E+00  0.00E+00  1.36E-06  1.56E-04  7.78E-03  0.77124
   1074.    9.311  1.93E-06  2.23E-04  0.00E+00  0.00E+00  0.00E+00  0.00E+00  1.93E-06  2.23E-04  7.79E-03  0.68726
   1076.    9.294  1.43E-06  1.66E-04  0.00E+00  0.00E+00  0.00E+00  0.00E+00  1.43E-06  1.66E-04  7.79E-03  0.75702
   1078.    9.276  9.87E-07  1.15E-04  0.00E+00  0.00E+00  0.00E+00  0.00E+00  9.87E-07  1.15E-04  7.79E-03  0.82754
   1080.    9.259  1.03E-06  1.20E-04  0.00E+00  0.00E+00  0.00E+00  0.00E+00  1.03E-06  1.20E-04  7.80E-03  0.81389
   1082.    9.242  9.87E-07  1.16E-04  0.00E+00  0.00E+00  0.00E+00  0.00E+00  9.87E-07  1.16E-04  7.80E-03  0.82081
   1084.    9.225  9.55E-07  1.12E-04  0.00E+00  0.00E+00  0.00E+00  0.00E+00  9.55E-07  1.12E-04  7.80E-03  0.83238
   1086.    9.208  9.77E-07  1.15E-04  0.00E+00  0.00E+00  0.00E+00  0.00E+00  9.77E-07  1.15E-04  7.80E-03  0.82596
   1088.    9.191  8.56E-07  1.01E-04  0.00E+00  0.00E+00  0.00E+00  0.00E+00  8.56E-07  1.01E-04  7.80E-03  0.84388
   1090.    9.174  1.31E-06  1.56E-04  0.00E+00  0.00E+00  0.00E+00  0.00E+00  1.31E-06  1.56E-04  7.81E-03  0.77955
   1092.    9.158  1.32E-06  1.57E-04  0.00E+00  0.00E+00  0.00E+00  0.00E+00  1.32E-06  1.57E-04  7.81E-03  0.78089
   1094.    9.141  6.91E-07  8.28E-05  0.00E+00  0.00E+00  0.00E+00  0.00E+00  6.91E-07  8.28E-05  7.81E-03  0.87298
   1096.    9.124  6.21E-07  7.45E-05  0.00E+00  0.00E+00  0.00E+00  0.00E+00  6.21E-07  7.45E-05  7.81E-03  0.88647
   1098.    9.107  9.25E-07  1.12E-04  0.00E+00  0.00E+00  0.00E+00  0.00E+00  9.25E-07  1.12E-04  7.81E-03  0.83962
   1100.    9.091  1.93E-06  2.34E-04  0.00E+00  0.00E+00  0.00E+00  0.00E+00  1.93E-06  2.34E-04  7.82E-03  0.68274
   1102.    9.074  1.51E-06  1.83E-04  0.00E+00  0.00E+00  0.00E+00  0.00E+00  1.51E-06  1.83E-04  7.82E-03  0.74771
   1104.    9.058  7.77E-07  9.47E-05  0.00E+00  0.00E+00  0.00E+00  0.00E+00  7.77E-07  9.47E-05  7.82E-03  0.86121
   1106.    9.042  1.56E-06  1.91E-04  0.00E+00  0.00E+00  0.00E+00  0.00E+00  1.56E-06  1.91E-04  7.82E-03  0.74017
   1108.    9.025  1.47E-06  1.80E-04  0.00E+00  0.00E+00  0.00E+00  0.00E+00  1.47E-06  1.80E-04  7.83E-03  0.75540
   1110.    9.009  1.14E-06  1.40E-04  0.00E+00  0.00E+00  0.00E+00  0.00E+00  1.14E-06  1.40E-04  7.83E-03  0.80240
   1112.    8.993  1.72E-06  2.12E-04  0.00E+00  0.00E+00  0.00E+00  0.00E+00  1.72E-06  2.12E-04  7.83E-03  0.70977
   1114.    8.977  9.52E-07  1.18E-04  0.00E+00  0.00E+00  0.00E+00  0.00E+00  9.52E-07  1.18E-04  7.83E-03  0.82932
   1116.    8.961  6.86E-07  8.54E-05  0.00E+00  0.00E+00  0.00E+00  0.00E+00  6.86E-07  8.54E-05  7.84E-03  0.86942
   1118.    8.945  8.63E-07  1.08E-04  0.00E+00  0.00E+00  0.00E+00  0.00E+00  8.63E-07  1.08E-04  7.84E-03  0.83623
   1120.    8.929  1.71E-06  2.15E-04  0.00E+00  0.00E+00  0.00E+00  0.00E+00  1.71E-06  2.15E-04  7.84E-03  0.70299
   1122.    8.913  1.72E-06  2.17E-04  0.00E+00  0.00E+00  0.00E+00  0.00E+00  1.72E-06  2.17E-04  7.84E-03  0.69938
   1124.    8.897  7.19E-07  9.08E-05  0.00E+00  0.00E+00  0.00E+00  0.00E+00  7.19E-07  9.08E-05  7.85E-03  0.85439
   1126.    8.881  5.95E-07  7.54E-05  0.00E+00  0.00E+00  0.00E+00  0.00E+00  5.95E-07  7.54E-05  7.85E-03  0.87552
   1128.    8.865  5.75E-07  7.32E-05  0.00E+00  0.00E+00  0.00E+00  0.00E+00  5.75E-07  7.32E-05  7.85E-03  0.88065
   1130.    8.850  6.15E-07  7.85E-05  0.00E+00  0.00E+00  0.00E+00  0.00E+00  6.15E-07  7.85E-05  7.85E-03  0.87413
   1132.    8.834  7.15E-07  9.17E-05  0.00E+00  0.00E+00  0.00E+00  0.00E+00  7.15E-07  9.17E-05  7.85E-03  0.85870
   1134.    8.818  1.85E-06  2.39E-04  0.00E+00  0.00E+00  0.00E+00  0.00E+00  1.85E-06  2.39E-04  7.85E-03  0.66974
   1136.    8.803  3.54E-06  4.57E-04  0.00E+00  0.00E+00  0.00E+00  0.00E+00  3.54E-06  4.57E-04  7.86E-03  0.39554
   1138.    8.787  2.19E-06  2.84E-04  0.00E+00  0.00E+00  0.00E+00  0.00E+00  2.19E-06  2.84E-04  7.87E-03  0.61714
   1140.    8.772  7.86E-07  1.02E-04  0.00E+00  0.00E+00  0.00E+00  0.00E+00  7.86E-07  1.02E-04  7.87E-03  0.85127
   1142.    8.757  7.05E-07  9.19E-05  0.00E+00  0.00E+00  0.00E+00  0.00E+00  7.05E-07  9.19E-05  7.87E-03  0.86513
   1144.    8.741  5.92E-07  7.74E-05  0.00E+00  0.00E+00  0.00E+00  0.00E+00  5.92E-07  7.74E-05  7.87E-03  0.88408
   1146.    8.726  5.76E-07  7.56E-05  0.00E+00  0.00E+00  0.00E+00  0.00E+00  5.76E-07  7.56E-05  7.87E-03  0.88677
   1148.    8.711  1.37E-06  1.80E-04  0.00E+00  0.00E+00  0.00E+00  0.00E+00  1.37E-06  1.80E-04  7.87E-03  0.74999
   1150.    8.696  1.96E-06  2.59E-04  0.00E+00  0.00E+00  0.00E+00  0.00E+00  1.96E-06  2.59E-04  7.88E-03  0.64614
   1152.    8.681  2.06E-06  2.73E-04  0.00E+00  0.00E+00  0.00E+00  0.00E+00  2.06E-06  2.73E-04  7.88E-03  0.62924
   1154.    8.666  1.16E-06  1.54E-04  0.00E+00  0.00E+00  0.00E+00  0.00E+00  1.16E-06  1.54E-04  7.88E-03  0.78510
   1156.    8.651  5.63E-07  7.52E-05  0.00E+00  0.00E+00  0.00E+00  0.00E+00  5.63E-07  7.52E-05  7.89E-03  0.88802
   1158.    8.636  5.19E-07  6.96E-05  0.00E+00  0.00E+00  0.00E+00  0.00E+00  5.19E-07  6.96E-05  7.89E-03  0.89599
   1160.    8.621  5.42E-07  7.29E-05  0.00E+00  0.00E+00  0.00E+00  0.00E+00  5.42E-07  7.29E-05  7.89E-03  0.89142
   1162.    8.606  6.36E-07  8.58E-05  0.00E+00  0.00E+00  0.00E+00  0.00E+00  6.36E-07  8.58E-05  7.89E-03  0.87397
   1164.    8.591  1.78E-06  2.41E-04  0.00E+00  0.00E+00  0.00E+00  0.00E+00  1.78E-06  2.41E-04  7.89E-03  0.66856
   1166.    8.576  2.19E-06  2.98E-04  0.00E+00  0.00E+00  0.00E+00  0.00E+00  2.19E-06  2.98E-04  7.90E-03  0.59168
   1168.    8.562  9.28E-07  1.27E-04  0.00E+00  0.00E+00  0.00E+00  0.00E+00  9.28E-07  1.27E-04  7.90E-03  0.82001
   1170.    8.547  7.71E-07  1.06E-04  0.00E+00  0.00E+00  0.00E+00  0.00E+00  7.71E-07  1.06E-04  7.90E-03  0.84772
   1172.    8.532  1.50E-06  2.06E-04  0.00E+00  0.00E+00  0.00E+00  0.00E+00  1.50E-06  2.06E-04  7.90E-03  0.71352
   1174.    8.518  3.43E-06  4.73E-04  0.00E+00  0.00E+00  0.00E+00  0.00E+00  3.43E-06  4.73E-04  7.91E-03  0.36732
   1176.    8.503  2.62E-06  3.62E-04  0.00E+00  0.00E+00  0.00E+00  0.00E+00  2.62E-06  3.62E-04  7.92E-03  0.51259
   1178.    8.489  1.01E-06  1.40E-04  0.00E+00  0.00E+00  0.00E+00  0.00E+00  1.01E-06  1.40E-04  7.92E-03  0.80014
   1180.    8.475  9.15E-07  1.27E-04  0.00E+00  0.00E+00  0.00E+00  0.00E+00  9.15E-07  1.27E-04  7.92E-03  0.81763
   1182.    8.460  8.36E-07  1.17E-04  0.00E+00  0.00E+00  0.00E+00  0.00E+00  8.36E-07  1.17E-04  7.92E-03  0.83329
   1184.    8.446  9.95E-07  1.39E-04  0.00E+00  0.00E+00  0.00E+00  0.00E+00  9.95E-07  1.39E-04  7.92E-03  0.80182
   1186.    8.432  2.47E-06  3.47E-04  0.00E+00  0.00E+00  0.00E+00  0.00E+00  2.47E-06  3.47E-04  7.93E-03  0.52590
   1188.    8.418  2.90E-06  4.10E-04  0.00E+00  0.00E+00  0.00E+00  0.00E+00  2.90E-06  4.10E-04  7.93E-03  0.44254
   1190.    8.403  1.38E-06  1.96E-04  0.00E+00  0.00E+00  0.00E+00  0.00E+00  1.38E-06  1.96E-04  7.94E-03  0.72074
   1192.    8.389  9.49E-07  1.35E-04  0.00E+00  0.00E+00  0.00E+00  0.00E+00  9.49E-07  1.35E-04  7.94E-03  0.80440
   1194.    8.375  8.93E-07  1.27E-04  0.00E+00  0.00E+00  0.00E+00  0.00E+00  8.93E-07  1.27E-04  7.94E-03  0.81741
   1196.    8.361  1.38E-06  1.97E-04  0.00E+00  0.00E+00  0.00E+00  0.00E+00  1.38E-06  1.97E-04  7.94E-03  0.72360
   1198.    8.347  2.56E-06  3.68E-04  0.00E+00  0.00E+00  0.00E+00  0.00E+00  2.56E-06  3.68E-04  7.95E-03  0.49346
   1200.    8.333  1.69E-06  2.43E-04  0.00E+00  0.00E+00  0.00E+00  0.00E+00  1.69E-06  2.43E-04  7.95E-03  0.65856
   1202.    8.319  6.97E-07  1.01E-04  0.00E+00  0.00E+00  0.00E+00  0.00E+00  6.97E-07  1.01E-04  7.95E-03  0.85095
   1204.    8.306  7.39E-07  1.07E-04  0.00E+00  0.00E+00  0.00E+00  0.00E+00  7.39E-07  1.07E-04  7.95E-03  0.84288
   1206.    8.292  1.08E-06  1.58E-04  0.00E+00  0.00E+00  0.00E+00  0.00E+00  1.08E-06  1.58E-04  7.96E-03  0.77235
   1208.    8.278  1.11E-06  1.61E-04  0.00E+00  0.00E+00  0.00E+00  0.00E+00  1.11E-06  1.61E-04  7.96E-03  0.76552
   1210.    8.264  2.30E-06  3.37E-04  0.00E+00  0.00E+00  0.00E+00  0.00E+00  2.30E-06  3.37E-04  7.96E-03  0.52746
   1212.    8.251  3.78E-06  5.55E-04  0.00E+00  0.00E+00  0.00E+00  0.00E+00  3.78E-06  5.55E-04  7.97E-03  0.24087
   1214.    8.237  2.55E-06  3.76E-04  0.00E+00  0.00E+00  0.00E+00  0.00E+00  2.55E-06  3.76E-04  7.98E-03  0.47329
   1216.    8.224  1.50E-06  2.22E-04  0.00E+00  0.00E+00  0.00E+00  0.00E+00  1.50E-06  2.22E-04  7.98E-03  0.67084
   1218.    8.210  2.37E-06  3.51E-04  0.00E+00  0.00E+00  0.00E+00  0.00E+00  2.37E-06  3.51E-04  7.98E-03  0.49636
   1220.    8.197  2.62E-06  3.90E-04  0.00E+00  0.00E+00  0.00E+00  0.00E+00  2.62E-06  3.90E-04  7.99E-03  0.43705
   1222.    8.183  1.99E-06  2.97E-04  0.00E+00  0.00E+00  0.00E+00  0.00E+00  1.99E-06  2.97E-04  7.99E-03  0.55294
   1224.    8.170  3.00E-06  4.50E-04  0.00E+00  0.00E+00  0.00E+00  0.00E+00  3.00E-06  4.50E-04  8.00E-03  0.36124
   1226.    8.157  3.35E-06  5.03E-04  0.00E+00  0.00E+00  0.00E+00  0.00E+00  3.35E-06  5.03E-04  8.01E-03  0.30410
   1228.    8.143  1.78E-06  2.68E-04  0.00E+00  0.00E+00  0.00E+00  0.00E+00  1.78E-06  2.68E-04  8.01E-03  0.59834
   1230.    8.130  1.15E-06  1.73E-04  0.00E+00  0.00E+00  0.00E+00  0.00E+00  1.15E-06  1.73E-04  8.01E-03  0.71847
   1232.    8.117  7.92E-07  1.20E-04  0.00E+00  0.00E+00  0.00E+00  0.00E+00  7.92E-07  1.20E-04  8.01E-03  0.81079
   1234.    8.104  8.84E-07  1.35E-04  0.00E+00  0.00E+00  0.00E+00  0.00E+00  8.84E-07  1.35E-04  8.01E-03  0.78820
   1236.    8.091  1.58E-06  2.41E-04  0.00E+00  0.00E+00  0.00E+00  0.00E+00  1.58E-06  2.41E-04  8.02E-03  0.61365
   1238.    8.078  2.15E-06  3.30E-04  0.00E+00  0.00E+00  0.00E+00  0.00E+00  2.15E-06  3.30E-04  8.02E-03  0.49321
   1240.    8.065  2.16E-06  3.32E-04  0.00E+00  0.00E+00  0.00E+00  0.00E+00  2.16E-06  3.32E-04  8.03E-03  0.49326
   1242.    8.052  2.62E-06  4.04E-04  0.00E+00  0.00E+00  0.00E+00  0.00E+00  2.62E-06  4.04E-04  8.03E-03  0.39324
   1244.    8.039  3.74E-06  5.79E-04  0.00E+00  0.00E+00  0.00E+00  0.00E+00  3.74E-06  5.79E-04  8.04E-03  0.17187
   1246.    8.026  2.83E-06  4.40E-04  0.00E+00  0.00E+00  0.00E+00  0.00E+00  2.83E-06  4.40E-04  8.05E-03  0.33859
   1248.    8.013  2.14E-06  3.33E-04  0.00E+00  0.00E+00  0.00E+00  0.00E+00  2.14E-06  3.33E-04  8.05E-03  0.47402
   1250.    8.000  2.03E-06  3.17E-04  0.00E+00  0.00E+00  0.00E+00  0.00E+00  2.03E-06  3.17E-04  8.05E-03  0.50059
   1252.    7.987  2.38E-06  3.73E-04  0.00E+00  0.00E+00  0.00E+00  0.00E+00  2.38E-06  3.73E-04  8.06E-03  0.42145
   1254.    7.974  2.45E-06  3.86E-04  0.00E+00  0.00E+00  0.00E+00  0.00E+00  2.45E-06  3.86E-04  8.06E-03  0.38656
   1256.    7.962  2.29E-06  3.62E-04  0.00E+00  0.00E+00  0.00E+00  0.00E+00  2.29E-06  3.62E-04  8.07E-03  0.43683
   1258.    7.949  3.18E-06  5.04E-04  0.00E+00  0.00E+00  0.00E+00  0.00E+00  3.18E-06  5.04E-04  8.07E-03  0.26649
   1260.    7.937  4.18E-06  6.64E-04  0.00E+00  0.00E+00  0.00E+00  0.00E+00  4.18E-06  6.64E-04  8.08E-03  0.06970
   1262.    7.924  3.65E-06  5.81E-04  0.00E+00  0.00E+00  0.00E+00  0.00E+00  3.65E-06  5.81E-04  8.09E-03  0.14666
   1264.    7.911  3.54E-06  5.65E-04  0.00E+00  0.00E+00  0.00E+00  0.00E+00  3.54E-06  5.65E-04  8.10E-03  0.16580
   1266.    7.899  4.19E-06  6.71E-04  0.00E+00  0.00E+00  0.00E+00  0.00E+00  4.19E-06  6.71E-04  8.11E-03  0.05130
   1268.    7.886  4.44E-06  7.13E-04  0.00E+00  0.00E+00  0.00E+00  0.00E+00  4.44E-06  7.13E-04  8.11E-03  0.00906
   1270.    7.874  4.47E-06  7.21E-04  0.00E+00  0.00E+00  0.00E+00  0.00E+00  4.47E-06  7.21E-04  8.12E-03  0.00204
   1272.    7.862  4.21E-06  6.82E-04  0.00E+00  0.00E+00  0.00E+00  0.00E+00  4.21E-06  6.82E-04  8.13E-03  0.04230
   1274.    7.849  3.16E-06  5.13E-04  0.00E+00  0.00E+00  0.00E+00  0.00E+00  3.16E-06  5.13E-04  8.14E-03  0.22569
   1276.    7.837  2.26E-06  3.68E-04  0.00E+00  0.00E+00  0.00E+00  0.00E+00  2.26E-06  3.68E-04  8.14E-03  0.40059
   1278.    7.825  2.12E-06  3.46E-04  0.00E+00  0.00E+00  0.00E+00  0.00E+00  2.12E-06  3.46E-04  8.15E-03  0.45855
   1280.    7.813  3.08E-06  5.04E-04  0.00E+00  0.00E+00  0.00E+00  0.00E+00  3.08E-06  5.04E-04  8.15E-03  0.25589
   1282.    7.800  3.38E-06  5.56E-04  0.00E+00  0.00E+00  0.00E+00  0.00E+00  3.38E-06  5.56E-04  8.16E-03  0.14949
   1284.    7.788  3.36E-06  5.54E-04  0.00E+00  0.00E+00  0.00E+00  0.00E+00  3.36E-06  5.54E-04  8.17E-03  0.15724
   1286.    7.776  3.72E-06  6.15E-04  0.00E+00  0.00E+00  0.00E+00  0.00E+00  3.72E-06  6.15E-04  8.17E-03  0.10562
   1288.    7.764  4.10E-06  6.81E-04  0.00E+00  0.00E+00  0.00E+00  0.00E+00  4.10E-06  6.81E-04  8.18E-03  0.02919
   1290.    7.752  3.80E-06  6.32E-04  0.00E+00  0.00E+00  0.00E+00  0.00E+00  3.80E-06  6.32E-04  8.19E-03  0.07829
   1292.    7.740  3.27E-06  5.46E-04  0.00E+00  0.00E+00  0.00E+00  0.00E+00  3.27E-06  5.46E-04  8.20E-03  0.16854
   1294.    7.728  3.08E-06  5.16E-04  0.00E+00  0.00E+00  0.00E+00  0.00E+00  3.08E-06  5.16E-04  8.20E-03  0.17476
   1296.    7.716  3.60E-06  6.04E-04  0.00E+00  0.00E+00  0.00E+00  0.00E+00  3.60E-06  6.04E-04  8.21E-03  0.08189
   1298.    7.704  3.17E-06  5.34E-04  0.00E+00  0.00E+00  0.00E+00  0.00E+00  3.17E-06  5.34E-04  8.22E-03  0.16461
   1300.    7.692  2.69E-06  4.55E-04  0.00E+00  0.00E+00  0.00E+00  0.00E+00  2.69E-06  4.55E-04  8.22E-03  0.23176
   1302.    7.680  3.08E-06  5.23E-04  0.00E+00  0.00E+00  0.00E+00  0.00E+00  3.08E-06  5.23E-04  8.23E-03  0.12969
   1304.    7.669  3.59E-06  6.10E-04  0.00E+00  0.00E+00  0.00E+00  0.00E+00  3.59E-06  6.10E-04  8.23E-03  0.04351
   1306.    7.657  3.86E-06  6.59E-04  0.00E+00  0.00E+00  0.00E+00  0.00E+00  3.86E-06  6.59E-04  8.24E-03  0.01738
   1308.    7.645  3.89E-06  6.65E-04  0.00E+00  0.00E+00  0.00E+00  0.00E+00  3.89E-06  6.65E-04  8.25E-03  0.02233
   1310.    7.634  3.79E-06  6.51E-04  0.00E+00  0.00E+00  0.00E+00  0.00E+00  3.79E-06  6.51E-04  8.26E-03  0.03602
   1312.    7.622  3.92E-06  6.75E-04  0.00E+00  0.00E+00  0.00E+00  0.00E+00  3.92E-06  6.75E-04  8.27E-03  0.01625
   1314.    7.610  4.03E-06  6.97E-04  0.00E+00  0.00E+00  0.00E+00  0.00E+00  4.03E-06  6.97E-04  8.27E-03  0.00002
   1316.    7.599  4.02E-06  6.95E-04  0.00E+00  0.00E+00  0.00E+00  0.00E+00  4.02E-06  6.95E-04  8.28E-03  0.00002
   1318.    7.587  4.00E-06  6.95E-04  0.00E+00  0.00E+00  0.00E+00  0.00E+00  4.00E-06  6.95E-04  8.29E-03  0.00001
   1320.    7.576  3.95E-06  6.88E-04  0.00E+00  0.00E+00  0.00E+00  0.00E+00  3.95E-06  6.88E-04  8.30E-03  0.00150
   1322.    7.564  3.83E-06  6.69E-04  0.00E+00  0.00E+00  0.00E+00  0.00E+00  3.83E-06  6.69E-04  8.30E-03  0.00918
   1324.    7.553  3.59E-06  6.30E-04  0.00E+00  0.00E+00  0.00E+00  0.00E+00  3.59E-06  6.30E-04  8.31E-03  0.04722
   1326.    7.541  3.47E-06  6.10E-04  0.00E+00  0.00E+00  0.00E+00  0.00E+00  3.47E-06  6.10E-04  8.32E-03  0.06059
   1328.    7.530  3.63E-06  6.40E-04  0.00E+00  0.00E+00  0.00E+00  0.00E+00  3.63E-06  6.40E-04  8.33E-03  0.02571
   1330.    7.519  3.54E-06  6.26E-04  0.00E+00  0.00E+00  0.00E+00  0.00E+00  3.54E-06  6.26E-04  8.33E-03  0.04750
   1332.    7.508  3.50E-06  6.21E-04  0.00E+00  0.00E+00  0.00E+00  0.00E+00  3.50E-06  6.21E-04  8.34E-03  0.04689
   1334.    7.496  3.67E-06  6.52E-04  0.00E+00  0.00E+00  0.00E+00  0.00E+00  3.67E-06  6.52E-04  8.35E-03  0.01213
   1336.    7.485  3.76E-06  6.72E-04  0.00E+00  0.00E+00  0.00E+00  0.00E+00  3.76E-06  6.72E-04  8.36E-03  0.00372
   1338.    7.474  3.81E-06  6.82E-04  0.00E+00  0.00E+00  0.00E+00  0.00E+00  3.81E-06  6.82E-04  8.36E-03  0.00000
   1340.    7.463  3.79E-06  6.81E-04  0.00E+00  0.00E+00  0.00E+00  0.00E+00  3.79E-06  6.81E-04  8.37E-03  0.00000
   1342.    7.452  3.71E-06  6.68E-04  0.00E+00  0.00E+00  0.00E+00  0.00E+00  3.71E-06  6.68E-04  8.38E-03  0.00145
   1344.    7.440  3.57E-06  6.46E-04  0.00E+00  0.00E+00  0.00E+00  0.00E+00  3.57E-06  6.46E-04  8.38E-03  0.01235
   1346.    7.429  3.52E-06  6.37E-04  0.00E+00  0.00E+00  0.00E+00  0.00E+00  3.52E-06  6.37E-04  8.39E-03  0.01567
   1348.    7.418  3.58E-06  6.51E-04  0.00E+00  0.00E+00  0.00E+00  0.00E+00  3.58E-06  6.51E-04  8.40E-03  0.00485
   1350.    7.407  3.59E-06  6.54E-04  0.00E+00  0.00E+00  0.00E+00  0.00E+00  3.59E-06  6.54E-04  8.41E-03  0.00374
   1352.    7.396  3.53E-06  6.44E-04  0.00E+00  0.00E+00  0.00E+00  0.00E+00  3.53E-06  6.44E-04  8.41E-03  0.00652
   1354.    7.386  3.57E-06  6.54E-04  0.00E+00  0.00E+00  0.00E+00  0.00E+00  3.57E-06  6.54E-04  8.42E-03  0.00257
   1356.    7.375  3.56E-06  6.55E-04  0.00E+00  0.00E+00  0.00E+00  0.00E+00  3.56E-06  6.55E-04  8.43E-03  0.00077
   1358.    7.364  3.54E-06  6.53E-04  0.00E+00  0.00E+00  0.00E+00  0.00E+00  3.54E-06  6.53E-04  8.43E-03  0.00078
   1360.    7.353  3.56E-06  6.59E-04  0.00E+00  0.00E+00  0.00E+00  0.00E+00  3.56E-06  6.59E-04  8.44E-03  0.00006
   1362.    7.342  3.57E-06  6.63E-04  0.00E+00  0.00E+00  0.00E+00  0.00E+00  3.57E-06  6.63E-04  8.45E-03  0.00000
   1364.    7.331  3.55E-06  6.60E-04  0.00E+00  0.00E+00  0.00E+00  0.00E+00  3.55E-06  6.60E-04  8.46E-03  0.00001
   1366.    7.321  3.49E-06  6.51E-04  0.00E+00  0.00E+00  0.00E+00  0.00E+00  3.49E-06  6.51E-04  8.46E-03  0.00008
   1368.    7.310  3.48E-06  6.52E-04  0.00E+00  0.00E+00  0.00E+00  0.00E+00  3.48E-06  6.52E-04  8.47E-03  0.00006
   1370.    7.299  3.47E-06  6.51E-04  0.00E+00  0.00E+00  0.00E+00  0.00E+00  3.47E-06  6.51E-04  8.48E-03  0.00000
   1372.    7.289  3.46E-06  6.52E-04  0.00E+00  0.00E+00  0.00E+00  0.00E+00  3.46E-06  6.52E-04  8.48E-03  0.00000
   1374.    7.278  3.46E-06  6.53E-04  0.00E+00  0.00E+00  0.00E+00  0.00E+00  3.46E-06  6.53E-04  8.49E-03  0.00000
   1376.    7.267  3.43E-06  6.50E-04  0.00E+00  0.00E+00  0.00E+00  0.00E+00  3.43E-06  6.50E-04  8.50E-03  0.00000
   1378.    7.257  3.40E-06  6.45E-04  0.00E+00  0.00E+00  0.00E+00  0.00E+00  3.40E-06  6.45E-04  8.50E-03  0.00000
   1380.    7.246  3.36E-06  6.40E-04  0.00E+00  0.00E+00  0.00E+00  0.00E+00  3.36E-06  6.40E-04  8.51E-03  0.00008
   1382.    7.236  3.33E-06  6.36E-04  0.00E+00  0.00E+00  0.00E+00  0.00E+00  3.33E-06  6.36E-04  8.52E-03  0.00011
   1384.    7.225  3.32E-06  6.36E-04  0.00E+00  0.00E+00  0.00E+00  0.00E+00  3.32E-06  6.36E-04  8.52E-03  0.00003
   1386.    7.215  3.33E-06  6.41E-04  0.00E+00  0.00E+00  0.00E+00  0.00E+00  3.33E-06  6.41E-04  8.53E-03  0.00000
   1388.    7.205  3.33E-06  6.41E-04  0.00E+00  0.00E+00  0.00E+00  0.00E+00  3.33E-06  6.41E-04  8.54E-03  0.00000
   1390.    7.194  3.29E-06  6.37E-04  0.00E+00  0.00E+00  0.00E+00  0.00E+00  3.29E-06  6.37E-04  8.54E-03  0.00000
   1392.    7.184  3.28E-06  6.35E-04  0.00E+00  0.00E+00  0.00E+00  0.00E+00  3.28E-06  6.35E-04  8.55E-03  0.00000
   1394.    7.174  3.27E-06  6.36E-04  0.00E+00  0.00E+00  0.00E+00  0.00E+00  3.27E-06  6.36E-04  8.56E-03  0.00000
   1396.    7.163  3.26E-06  6.35E-04  0.00E+00  0.00E+00  0.00E+00  0.00E+00  3.26E-06  6.35E-04  8.56E-03  0.00000
   1398.    7.153  3.24E-06  6.33E-04  0.00E+00  0.00E+00  0.00E+00  0.00E+00  3.24E-06  6.33E-04  8.57E-03  0.00000
   1400.    7.143  3.22E-06  6.31E-04  0.00E+00  0.00E+00  0.00E+00  0.00E+00  3.22E-06  6.31E-04  8.58E-03  0.00000
   1402.    7.133  3.19E-06  6.27E-04  0.00E+00  0.00E+00  0.00E+00  0.00E+00  3.19E-06  6.27E-04  8.58E-03  0.00000
   1404.    7.123  3.18E-06  6.26E-04  0.00E+00  0.00E+00  0.00E+00  0.00E+00  3.18E-06  6.26E-04  8.59E-03  0.00000
   1406.    7.112  3.15E-06  6.22E-04  0.00E+00  0.00E+00  0.00E+00  0.00E+00  3.15E-06  6.22E-04  8.60E-03  0.00000
   1408.    7.102  3.11E-06  6.17E-04  0.00E+00  0.00E+00  0.00E+00  0.00E+00  3.11E-06  6.17E-04  8.60E-03  0.00000
   1410.    7.092  3.10E-06  6.17E-04  0.00E+00  0.00E+00  0.00E+00  0.00E+00  3.10E-06  6.17E-04  8.61E-03  0.00000
   1412.    7.082  3.09E-06  6.16E-04  0.00E+00  0.00E+00  0.00E+00  0.00E+00  3.09E-06  6.16E-04  8.61E-03  0.00000
   1414.    7.072  3.07E-06  6.14E-04  0.00E+00  0.00E+00  0.00E+00  0.00E+00  3.07E-06  6.14E-04  8.62E-03  0.00000
   1416.    7.062  3.07E-06  6.16E-04  0.00E+00  0.00E+00  0.00E+00  0.00E+00  3.07E-06  6.16E-04  8.63E-03  0.00000
   1418.    7.052  3.07E-06  6.18E-04  0.00E+00  0.00E+00  0.00E+00  0.00E+00  3.07E-06  6.18E-04  8.63E-03  0.00000
   1420.    7.042  3.06E-06  6.16E-04  0.00E+00  0.00E+00  0.00E+00  0.00E+00  3.06E-06  6.16E-04  8.64E-03  0.00000
   1422.    7.032  3.03E-06  6.13E-04  0.00E+00  0.00E+00  0.00E+00  0.00E+00  3.03E-06  6.13E-04  8.65E-03  0.00000
   1424.    7.022  3.01E-06  6.10E-04  0.00E+00  0.00E+00  0.00E+00  0.00E+00  3.01E-06  6.10E-04  8.65E-03  0.00000
   1426.    7.013  2.98E-06  6.07E-04  0.00E+00  0.00E+00  0.00E+00  0.00E+00  2.98E-06  6.07E-04  8.66E-03  0.00000
   1428.    7.003  2.97E-06  6.05E-04  0.00E+00  0.00E+00  0.00E+00  0.00E+00  2.97E-06  6.05E-04  8.66E-03  0.00000
   1430.    6.993  2.96E-06  6.04E-04  0.00E+00  0.00E+00  0.00E+00  0.00E+00  2.96E-06  6.04E-04  8.67E-03  0.00000
   1432.    6.983  2.94E-06  6.02E-04  0.00E+00  0.00E+00  0.00E+00  0.00E+00  2.94E-06  6.02E-04  8.67E-03  0.00000
   1434.    6.974  2.93E-06  6.02E-04  0.00E+00  0.00E+00  0.00E+00  0.00E+00  2.93E-06  6.02E-04  8.68E-03  0.00000
   1436.    6.964  2.92E-06  6.02E-04  0.00E+00  0.00E+00  0.00E+00  0.00E+00  2.92E-06  6.02E-04  8.69E-03  0.00000
   1438.    6.954  2.90E-06  5.99E-04  0.00E+00  0.00E+00  0.00E+00  0.00E+00  2.90E-06  5.99E-04  8.69E-03  0.00000
   1440.    6.944  2.86E-06  5.94E-04  0.00E+00  0.00E+00  0.00E+00  0.00E+00  2.86E-06  5.94E-04  8.70E-03  0.00000
   1442.    6.935  2.84E-06  5.90E-04  0.00E+00  0.00E+00  0.00E+00  0.00E+00  2.84E-06  5.90E-04  8.70E-03  0.00000
   1444.    6.925  2.82E-06  5.88E-04  0.00E+00  0.00E+00  0.00E+00  0.00E+00  2.82E-06  5.88E-04  8.71E-03  0.00000
   1446.    6.916  2.82E-06  5.90E-04  0.00E+00  0.00E+00  0.00E+00  0.00E+00  2.82E-06  5.90E-04  8.72E-03  0.00000
   1448.    6.906  2.81E-06  5.89E-04  0.00E+00  0.00E+00  0.00E+00  0.00E+00  2.81E-06  5.89E-04  8.72E-03  0.00000
   1450.    6.897  2.79E-06  5.86E-04  0.00E+00  0.00E+00  0.00E+00  0.00E+00  2.79E-06  5.86E-04  8.73E-03  0.00000
   1452.    6.887  2.78E-06  5.86E-04  0.00E+00  0.00E+00  0.00E+00  0.00E+00  2.78E-06  5.86E-04  8.73E-03  0.00000
   1454.    6.878  2.77E-06  5.86E-04  0.00E+00  0.00E+00  0.00E+00  0.00E+00  2.77E-06  5.86E-04  8.74E-03  0.00000
   1456.    6.868  2.76E-06  5.85E-04  0.00E+00  0.00E+00  0.00E+00  0.00E+00  2.76E-06  5.85E-04  8.74E-03  0.00000
   1458.    6.859  2.74E-06  5.83E-04  0.00E+00  0.00E+00  0.00E+00  0.00E+00  2.74E-06  5.83E-04  8.75E-03  0.00000
   1460.    6.849  2.72E-06  5.81E-04  0.00E+00  0.00E+00  0.00E+00  0.00E+00  2.72E-06  5.81E-04  8.75E-03  0.00000
   1462.    6.840  2.70E-06  5.78E-04  0.00E+00  0.00E+00  0.00E+00  0.00E+00  2.70E-06  5.78E-04  8.76E-03  0.00000
   1464.    6.831  2.69E-06  5.76E-04  0.00E+00  0.00E+00  0.00E+00  0.00E+00  2.69E-06  5.76E-04  8.76E-03  0.00000
   1466.    6.821  2.67E-06  5.74E-04  0.00E+00  0.00E+00  0.00E+00  0.00E+00  2.67E-06  5.74E-04  8.77E-03  0.00000
   1468.    6.812  2.65E-06  5.72E-04  0.00E+00  0.00E+00  0.00E+00  0.00E+00  2.65E-06  5.72E-04  8.78E-03  0.00000
   1470.    6.803  2.64E-06  5.71E-04  0.00E+00  0.00E+00  0.00E+00  0.00E+00  2.64E-06  5.71E-04  8.78E-03  0.00000
   1472.    6.793  2.63E-06  5.70E-04  0.00E+00  0.00E+00  0.00E+00  0.00E+00  2.63E-06  5.70E-04  8.79E-03  0.00000
   1474.    6.784  2.62E-06  5.69E-04  0.00E+00  0.00E+00  0.00E+00  0.00E+00  2.62E-06  5.69E-04  8.79E-03  0.00000
   1476.    6.775  2.60E-06  5.67E-04  0.00E+00  0.00E+00  0.00E+00  0.00E+00  2.60E-06  5.67E-04  8.80E-03  0.00000
   1478.    6.766  2.58E-06  5.63E-04  0.00E+00  0.00E+00  0.00E+00  0.00E+00  2.58E-06  5.63E-04  8.80E-03  0.00000
   1480.    6.757  2.56E-06  5.60E-04  0.00E+00  0.00E+00  0.00E+00  0.00E+00  2.56E-06  5.60E-04  8.81E-03  0.00000
   1482.    6.748  2.55E-06  5.59E-04  0.00E+00  0.00E+00  0.00E+00  0.00E+00  2.55E-06  5.59E-04  8.81E-03  0.00000
   1484.    6.739  2.53E-06  5.57E-04  0.00E+00  0.00E+00  0.00E+00  0.00E+00  2.53E-06  5.57E-04  8.82E-03  0.00000
   1486.    6.729  2.52E-06  5.57E-04  0.00E+00  0.00E+00  0.00E+00  0.00E+00  2.52E-06  5.57E-04  8.82E-03  0.00000
   1488.    6.720  2.51E-06  5.56E-04  0.00E+00  0.00E+00  0.00E+00  0.00E+00  2.51E-06  5.56E-04  8.83E-03  0.00000
   1490.    6.711  2.50E-06  5.54E-04  0.00E+00  0.00E+00  0.00E+00  0.00E+00  2.50E-06  5.54E-04  8.83E-03  0.00000
   1492.    6.702  2.48E-06  5.52E-04  0.00E+00  0.00E+00  0.00E+00  0.00E+00  2.48E-06  5.52E-04  8.84E-03  0.00000
   1494.    6.693  2.47E-06  5.50E-04  0.00E+00  0.00E+00  0.00E+00  0.00E+00  2.47E-06  5.50E-04  8.84E-03  0.00000
   1496.    6.684  2.45E-06  5.49E-04  0.00E+00  0.00E+00  0.00E+00  0.00E+00  2.45E-06  5.49E-04  8.85E-03  0.00000
   1498.    6.676  2.44E-06  5.47E-04  0.00E+00  0.00E+00  0.00E+00  0.00E+00  2.44E-06  5.47E-04  8.85E-03  0.00000
   1500.    6.667  2.43E-06  5.46E-04  0.00E+00  0.00E+00  0.00E+00  0.00E+00  2.43E-06  5.46E-04  8.86E-03  0.00000
   1502.    6.658  2.41E-06  5.44E-04  0.00E+00  0.00E+00  0.00E+00  0.00E+00  2.41E-06  5.44E-04  8.86E-03  0.00000
   1504.    6.649  2.40E-06  5.42E-04  0.00E+00  0.00E+00  0.00E+00  0.00E+00  2.40E-06  5.42E-04  8.87E-03  0.00000
   1506.    6.640  2.38E-06  5.40E-04  0.00E+00  0.00E+00  0.00E+00  0.00E+00  2.38E-06  5.40E-04  8.87E-03  0.00000
   1508.    6.631  2.37E-06  5.39E-04  0.00E+00  0.00E+00  0.00E+00  0.00E+00  2.37E-06  5.39E-04  8.88E-03  0.00000
   1510.    6.623  2.36E-06  5.37E-04  0.00E+00  0.00E+00  0.00E+00  0.00E+00  2.36E-06  5.37E-04  8.88E-03  0.00000
   1512.    6.614  2.34E-06  5.35E-04  0.00E+00  0.00E+00  0.00E+00  0.00E+00  2.34E-06  5.35E-04  8.88E-03  0.00000
   1514.    6.605  2.33E-06  5.34E-04  0.00E+00  0.00E+00  0.00E+00  0.00E+00  2.33E-06  5.34E-04  8.89E-03  0.00000
   1516.    6.596  2.31E-06  5.32E-04  0.00E+00  0.00E+00  0.00E+00  0.00E+00  2.31E-06  5.32E-04  8.89E-03  0.00000
   1518.    6.588  2.30E-06  5.30E-04  0.00E+00  0.00E+00  0.00E+00  0.00E+00  2.30E-06  5.30E-04  8.90E-03  0.00000
   1520.    6.579  2.29E-06  5.28E-04  0.00E+00  0.00E+00  0.00E+00  0.00E+00  2.29E-06  5.28E-04  8.90E-03  0.00000
   1522.    6.570  2.27E-06  5.27E-04  0.00E+00  0.00E+00  0.00E+00  0.00E+00  2.27E-06  5.27E-04  8.91E-03  0.00000
   1524.    6.562  2.26E-06  5.25E-04  0.00E+00  0.00E+00  0.00E+00  0.00E+00  2.26E-06  5.25E-04  8.91E-03  0.00000
   1526.    6.553  2.25E-06  5.23E-04  0.00E+00  0.00E+00  0.00E+00  0.00E+00  2.25E-06  5.23E-04  8.92E-03  0.00000
   1528.    6.545  2.23E-06  5.21E-04  0.00E+00  0.00E+00  0.00E+00  0.00E+00  2.23E-06  5.21E-04  8.92E-03  0.00000
   1530.    6.536  2.22E-06  5.19E-04  0.00E+00  0.00E+00  0.00E+00  0.00E+00  2.22E-06  5.19E-04  8.93E-03  0.00000
   1532.    6.527  2.21E-06  5.18E-04  0.00E+00  0.00E+00  0.00E+00  0.00E+00  2.21E-06  5.18E-04  8.93E-03  0.00000
   1534.    6.519  2.19E-06  5.16E-04  0.00E+00  0.00E+00  0.00E+00  0.00E+00  2.19E-06  5.16E-04  8.93E-03  0.00000
   1536.    6.510  2.18E-06  5.15E-04  0.00E+00  0.00E+00  0.00E+00  0.00E+00  2.18E-06  5.15E-04  8.94E-03  0.00000
   1538.    6.502  2.17E-06  5.13E-04  0.00E+00  0.00E+00  0.00E+00  0.00E+00  2.17E-06  5.13E-04  8.94E-03  0.00000
   1540.    6.494  2.15E-06  5.11E-04  0.00E+00  0.00E+00  0.00E+00  0.00E+00  2.15E-06  5.11E-04  8.95E-03  0.00000
   1542.    6.485  2.14E-06  5.09E-04  0.00E+00  0.00E+00  0.00E+00  0.00E+00  2.14E-06  5.09E-04  8.95E-03  0.00000
   1544.    6.477  2.13E-06  5.07E-04  0.00E+00  0.00E+00  0.00E+00  0.00E+00  2.13E-06  5.07E-04  8.96E-03  0.00000
   1546.    6.468  2.12E-06  5.06E-04  0.00E+00  0.00E+00  0.00E+00  0.00E+00  2.12E-06  5.06E-04  8.96E-03  0.00000
   1548.    6.460  2.10E-06  5.04E-04  0.00E+00  0.00E+00  0.00E+00  0.00E+00  2.10E-06  5.04E-04  8.96E-03  0.00000
   1550.    6.452  2.09E-06  5.02E-04  0.00E+00  0.00E+00  0.00E+00  0.00E+00  2.09E-06  5.02E-04  8.97E-03  0.00000
   1552.    6.443  2.08E-06  5.01E-04  0.00E+00  0.00E+00  0.00E+00  0.00E+00  2.08E-06  5.01E-04  8.97E-03  0.00000
   1554.    6.435  2.07E-06  4.99E-04  0.00E+00  0.00E+00  0.00E+00  0.00E+00  2.07E-06  4.99E-04  8.98E-03  0.00000
   1556.    6.427  2.05E-06  4.97E-04  0.00E+00  0.00E+00  0.00E+00  0.00E+00  2.05E-06  4.97E-04  8.98E-03  0.00000
   1558.    6.418  2.04E-06  4.95E-04  0.00E+00  0.00E+00  0.00E+00  0.00E+00  2.04E-06  4.95E-04  8.99E-03  0.00000
   1560.    6.410  2.03E-06  4.93E-04  0.00E+00  0.00E+00  0.00E+00  0.00E+00  2.03E-06  4.93E-04  8.99E-03  0.00000
   1562.    6.402  2.02E-06  4.92E-04  0.00E+00  0.00E+00  0.00E+00  0.00E+00  2.02E-06  4.92E-04  8.99E-03  0.00000
   1564.    6.394  2.00E-06  4.90E-04  0.00E+00  0.00E+00  0.00E+00  0.00E+00  2.00E-06  4.90E-04  9.00E-03  0.00000
   1566.    6.386  1.99E-06  4.88E-04  0.00E+00  0.00E+00  0.00E+00  0.00E+00  1.99E-06  4.88E-04  9.00E-03  0.00000
   1568.    6.378  1.98E-06  4.87E-04  0.00E+00  0.00E+00  0.00E+00  0.00E+00  1.98E-06  4.87E-04  9.01E-03  0.00000
   1570.    6.369  1.97E-06  4.85E-04  0.00E+00  0.00E+00  0.00E+00  0.00E+00  1.97E-06  4.85E-04  9.01E-03  0.00000
   1572.    6.361  1.95E-06  4.83E-04  0.00E+00  0.00E+00  0.00E+00  0.00E+00  1.95E-06  4.83E-04  9.01E-03  0.00000
   1574.    6.353  1.94E-06  4.81E-04  0.00E+00  0.00E+00  0.00E+00  0.00E+00  1.94E-06  4.81E-04  9.02E-03  0.00000
   1576.    6.345  1.93E-06  4.79E-04  0.00E+00  0.00E+00  0.00E+00  0.00E+00  1.93E-06  4.79E-04  9.02E-03  0.00000
   1578.    6.337  1.92E-06  4.78E-04  0.00E+00  0.00E+00  0.00E+00  0.00E+00  1.92E-06  4.78E-04  9.02E-03  0.00000
   1580.    6.329  1.90E-06  4.75E-04  0.00E+00  0.00E+00  0.00E+00  0.00E+00  1.90E-06  4.75E-04  9.03E-03  0.00000
   1582.    6.321  1.88E-06  4.71E-04  0.00E+00  0.00E+00  0.00E+00  0.00E+00  1.88E-06  4.71E-04  9.03E-03  0.00000
   1584.    6.313  1.87E-06  4.69E-04  0.00E+00  0.00E+00  0.00E+00  0.00E+00  1.87E-06  4.69E-04  9.04E-03  0.00000
   1586.    6.305  1.85E-06  4.66E-04  0.00E+00  0.00E+00  0.00E+00  0.00E+00  1.85E-06  4.66E-04  9.04E-03  0.00000
   1588.    6.297  1.84E-06  4.65E-04  0.00E+00  0.00E+00  0.00E+00  0.00E+00  1.84E-06  4.65E-04  9.04E-03  0.00000
   1590.    6.289  1.83E-06  4.64E-04  0.00E+00  0.00E+00  0.00E+00  0.00E+00  1.83E-06  4.64E-04  9.05E-03  0.00000
   1592.    6.281  1.82E-06  4.62E-04  0.00E+00  0.00E+00  0.00E+00  0.00E+00  1.82E-06  4.62E-04  9.05E-03  0.00000
   1594.    6.274  1.81E-06  4.61E-04  0.00E+00  0.00E+00  0.00E+00  0.00E+00  1.81E-06  4.61E-04  9.05E-03  0.00000
   1596.    6.266  1.80E-06  4.59E-04  0.00E+00  0.00E+00  0.00E+00  0.00E+00  1.80E-06  4.59E-04  9.06E-03  0.00000
   1598.    6.258  1.79E-06  4.56E-04  0.00E+00  0.00E+00  0.00E+00  0.00E+00  1.79E-06  4.56E-04  9.06E-03  0.00000
   1600.    6.250  1.78E-06  4.55E-04  0.00E+00  0.00E+00  0.00E+00  0.00E+00  1.78E-06  4.55E-04  9.06E-03  0.00000
   1602.    6.242  1.77E-06  4.55E-04  0.00E+00  0.00E+00  0.00E+00  0.00E+00  1.77E-06  4.55E-04  9.07E-03  0.00000
   1604.    6.234  1.76E-06  4.53E-04  0.00E+00  0.00E+00  0.00E+00  0.00E+00  1.76E-06  4.53E-04  9.07E-03  0.00000
   1606.    6.227  1.75E-06  4.51E-04  0.00E+00  0.00E+00  0.00E+00  0.00E+00  1.75E-06  4.51E-04  9.08E-03  0.00000
   1608.    6.219  1.74E-06  4.51E-04  0.00E+00  0.00E+00  0.00E+00  0.00E+00  1.74E-06  4.51E-04  9.08E-03  0.00000
   1610.    6.211  1.73E-06  4.49E-04  0.00E+00  0.00E+00  0.00E+00  0.00E+00  1.73E-06  4.49E-04  9.08E-03  0.00000
   1612.    6.203  1.72E-06  4.47E-04  0.00E+00  0.00E+00  0.00E+00  0.00E+00  1.72E-06  4.47E-04  9.09E-03  0.00000
   1614.    6.196  1.72E-06  4.47E-04  0.00E+00  0.00E+00  0.00E+00  0.00E+00  1.72E-06  4.47E-04  9.09E-03  0.00000
   1616.    6.188  1.71E-06  4.46E-04  0.00E+00  0.00E+00  0.00E+00  0.00E+00  1.71E-06  4.46E-04  9.09E-03  0.00000
   1618.    6.180  1.70E-06  4.44E-04  0.00E+00  0.00E+00  0.00E+00  0.00E+00  1.70E-06  4.44E-04  9.10E-03  0.00000
   1620.    6.173  1.69E-06  4.42E-04  0.00E+00  0.00E+00  0.00E+00  0.00E+00  1.69E-06  4.42E-04  9.10E-03  0.00000
   1622.    6.165  1.68E-06  4.41E-04  0.00E+00  0.00E+00  0.00E+00  0.00E+00  1.68E-06  4.41E-04  9.10E-03  0.00000
   1624.    6.158  1.67E-06  4.39E-04  0.00E+00  0.00E+00  0.00E+00  0.00E+00  1.67E-06  4.39E-04  9.11E-03  0.00000
   1626.    6.150  1.65E-06  4.38E-04  0.00E+00  0.00E+00  0.00E+00  0.00E+00  1.65E-06  4.38E-04  9.11E-03  0.00000
   1628.    6.143  1.64E-06  4.35E-04  0.00E+00  0.00E+00  0.00E+00  0.00E+00  1.64E-06  4.35E-04  9.11E-03  0.00000
   1630.    6.135  1.63E-06  4.33E-04  0.00E+00  0.00E+00  0.00E+00  0.00E+00  1.63E-06  4.33E-04  9.12E-03  0.00000
   1632.    6.127  1.62E-06  4.32E-04  0.00E+00  0.00E+00  0.00E+00  0.00E+00  1.62E-06  4.32E-04  9.12E-03  0.00000
   1634.    6.120  1.62E-06  4.31E-04  0.00E+00  0.00E+00  0.00E+00  0.00E+00  1.62E-06  4.31E-04  9.12E-03  0.00000
   1636.    6.112  1.61E-06  4.30E-04  0.00E+00  0.00E+00  0.00E+00  0.00E+00  1.61E-06  4.30E-04  9.13E-03  0.00000
   1638.    6.105  1.60E-06  4.28E-04  0.00E+00  0.00E+00  0.00E+00  0.00E+00  1.60E-06  4.28E-04  9.13E-03  0.00000
   1640.    6.098  1.58E-06  4.26E-04  0.00E+00  0.00E+00  0.00E+00  0.00E+00  1.58E-06  4.26E-04  9.13E-03  0.00000
   1642.    6.090  1.57E-06  4.24E-04  0.00E+00  0.00E+00  0.00E+00  0.00E+00  1.57E-06  4.24E-04  9.14E-03  0.00000
   1644.    6.083  1.57E-06  4.23E-04  0.00E+00  0.00E+00  0.00E+00  0.00E+00  1.57E-06  4.23E-04  9.14E-03  0.00000
   1646.    6.075  1.56E-06  4.22E-04  0.00E+00  0.00E+00  0.00E+00  0.00E+00  1.56E-06  4.22E-04  9.14E-03  0.00000
   1648.    6.068  1.55E-06  4.20E-04  0.00E+00  0.00E+00  0.00E+00  0.00E+00  1.55E-06  4.20E-04  9.14E-03  0.00000
   1650.    6.061  1.54E-06  4.19E-04  0.00E+00  0.00E+00  0.00E+00  0.00E+00  1.54E-06  4.19E-04  9.15E-03  0.00000
   1652.    6.053  1.53E-06  4.17E-04  0.00E+00  0.00E+00  0.00E+00  0.00E+00  1.53E-06  4.17E-04  9.15E-03  0.00000
   1654.    6.046  1.52E-06  4.15E-04  0.00E+00  0.00E+00  0.00E+00  0.00E+00  1.52E-06  4.15E-04  9.15E-03  0.00000
   1656.    6.039  1.51E-06  4.14E-04  0.00E+00  0.00E+00  0.00E+00  0.00E+00  1.51E-06  4.14E-04  9.16E-03  0.00000
   1658.    6.031  1.50E-06  4.12E-04  0.00E+00  0.00E+00  0.00E+00  0.00E+00  1.50E-06  4.12E-04  9.16E-03  0.00000
   1660.    6.024  1.49E-06  4.10E-04  0.00E+00  0.00E+00  0.00E+00  0.00E+00  1.49E-06  4.10E-04  9.16E-03  0.00000
   1662.    6.017  1.48E-06  4.09E-04  0.00E+00  0.00E+00  0.00E+00  0.00E+00  1.48E-06  4.09E-04  9.17E-03  0.00000
   1664.    6.010  1.47E-06  4.07E-04  0.00E+00  0.00E+00  0.00E+00  0.00E+00  1.47E-06  4.07E-04  9.17E-03  0.00000
   1666.    6.002  1.46E-06  4.05E-04  0.00E+00  0.00E+00  0.00E+00  0.00E+00  1.46E-06  4.05E-04  9.17E-03  0.00000
   1668.    5.995  1.45E-06  4.04E-04  0.00E+00  0.00E+00  0.00E+00  0.00E+00  1.45E-06  4.04E-04  9.17E-03  0.00000
   1670.    5.988  1.44E-06  4.03E-04  0.00E+00  0.00E+00  0.00E+00  0.00E+00  1.44E-06  4.03E-04  9.18E-03  0.00000
   1672.    5.981  1.44E-06  4.01E-04  0.00E+00  0.00E+00  0.00E+00  0.00E+00  1.44E-06  4.01E-04  9.18E-03  0.00000
   1674.    5.974  1.43E-06  4.00E-04  0.00E+00  0.00E+00  0.00E+00  0.00E+00  1.43E-06  4.00E-04  9.18E-03  0.00000
   1676.    5.967  1.42E-06  3.98E-04  0.00E+00  0.00E+00  0.00E+00  0.00E+00  1.42E-06  3.98E-04  9.19E-03  0.00000
   1678.    5.959  1.41E-06  3.97E-04  0.00E+00  0.00E+00  0.00E+00  0.00E+00  1.41E-06  3.97E-04  9.19E-03  0.00000
   1680.    5.952  1.40E-06  3.95E-04  0.00E+00  0.00E+00  0.00E+00  0.00E+00  1.40E-06  3.95E-04  9.19E-03  0.00000
   1682.    5.945  1.39E-06  3.94E-04  0.00E+00  0.00E+00  0.00E+00  0.00E+00  1.39E-06  3.94E-04  9.19E-03  0.00000
   1684.    5.938  1.38E-06  3.92E-04  0.00E+00  0.00E+00  0.00E+00  0.00E+00  1.38E-06  3.92E-04  9.20E-03  0.00000
   1686.    5.931  1.37E-06  3.90E-04  0.00E+00  0.00E+00  0.00E+00  0.00E+00  1.37E-06  3.90E-04  9.20E-03  0.00000
   1688.    5.924  1.37E-06  3.89E-04  0.00E+00  0.00E+00  0.00E+00  0.00E+00  1.37E-06  3.89E-04  9.20E-03  0.00000
   1690.    5.917  1.36E-06  3.87E-04  0.00E+00  0.00E+00  0.00E+00  0.00E+00  1.36E-06  3.87E-04  9.21E-03  0.00000
   1692.    5.910  1.35E-06  3.86E-04  0.00E+00  0.00E+00  0.00E+00  0.00E+00  1.35E-06  3.86E-04  9.21E-03  0.00000
   1694.    5.903  1.34E-06  3.84E-04  0.00E+00  0.00E+00  0.00E+00  0.00E+00  1.34E-06  3.84E-04  9.21E-03  0.00000
   1696.    5.896  1.33E-06  3.83E-04  0.00E+00  0.00E+00  0.00E+00  0.00E+00  1.33E-06  3.83E-04  9.21E-03  0.00000
   1698.    5.889  1.32E-06  3.81E-04  0.00E+00  0.00E+00  0.00E+00  0.00E+00  1.32E-06  3.81E-04  9.22E-03  0.00000
   1700.    5.882  1.31E-06  3.79E-04  0.00E+00  0.00E+00  0.00E+00  0.00E+00  1.31E-06  3.79E-04  9.22E-03  0.00000
   1702.    5.875  1.31E-06  3.78E-04  0.00E+00  0.00E+00  0.00E+00  0.00E+00  1.31E-06  3.78E-04  9.22E-03  0.00000
   1704.    5.869  1.30E-06  3.77E-04  0.00E+00  0.00E+00  0.00E+00  0.00E+00  1.30E-06  3.77E-04  9.22E-03  0.00000
   1706.    5.862  1.29E-06  3.75E-04  0.00E+00  0.00E+00  0.00E+00  0.00E+00  1.29E-06  3.75E-04  9.23E-03  0.00000
   1708.    5.855  1.28E-06  3.73E-04  0.00E+00  0.00E+00  0.00E+00  0.00E+00  1.28E-06  3.73E-04  9.23E-03  0.00000
   1710.    5.848  1.27E-06  3.71E-04  0.00E+00  0.00E+00  0.00E+00  0.00E+00  1.27E-06  3.71E-04  9.23E-03  0.00000
   1712.    5.841  1.26E-06  3.70E-04  0.00E+00  0.00E+00  0.00E+00  0.00E+00  1.26E-06  3.70E-04  9.23E-03  0.00000
   1714.    5.834  1.26E-06  3.69E-04  0.00E+00  0.00E+00  0.00E+00  0.00E+00  1.26E-06  3.69E-04  9.24E-03  0.00000
   1716.    5.828  1.25E-06  3.68E-04  0.00E+00  0.00E+00  0.00E+00  0.00E+00  1.25E-06  3.68E-04  9.24E-03  0.00000
   1718.    5.821  1.24E-06  3.66E-04  0.00E+00  0.00E+00  0.00E+00  0.00E+00  1.24E-06  3.66E-04  9.24E-03  0.00000
   1720.    5.814  1.23E-06  3.64E-04  0.00E+00  0.00E+00  0.00E+00  0.00E+00  1.23E-06  3.64E-04  9.24E-03  0.00000
   1722.    5.807  1.22E-06  3.62E-04  0.00E+00  0.00E+00  0.00E+00  0.00E+00  1.22E-06  3.62E-04  9.25E-03  0.00000
   1724.    5.800  1.21E-06  3.60E-04  0.00E+00  0.00E+00  0.00E+00  0.00E+00  1.21E-06  3.60E-04  9.25E-03  0.00000
   1726.    5.794  1.20E-06  3.58E-04  0.00E+00  0.00E+00  0.00E+00  0.00E+00  1.20E-06  3.58E-04  9.25E-03  0.00000
   1728.    5.787  1.20E-06  3.57E-04  0.00E+00  0.00E+00  0.00E+00  0.00E+00  1.20E-06  3.57E-04  9.25E-03  0.00000
   1730.    5.780  1.19E-06  3.57E-04  0.00E+00  0.00E+00  0.00E+00  0.00E+00  1.19E-06  3.57E-04  9.26E-03  0.00000
   1732.    5.774  1.19E-06  3.56E-04  0.00E+00  0.00E+00  0.00E+00  0.00E+00  1.19E-06  3.56E-04  9.26E-03  0.00000
   1734.    5.767  1.18E-06  3.55E-04  0.00E+00  0.00E+00  0.00E+00  0.00E+00  1.18E-06  3.55E-04  9.26E-03  0.00000
   1736.    5.760  1.17E-06  3.53E-04  0.00E+00  0.00E+00  0.00E+00  0.00E+00  1.17E-06  3.53E-04  9.26E-03  0.00000
   1738.    5.754  1.16E-06  3.51E-04  0.00E+00  0.00E+00  0.00E+00  0.00E+00  1.16E-06  3.51E-04  9.27E-03  0.00000
   1740.    5.747  1.15E-06  3.49E-04  0.00E+00  0.00E+00  0.00E+00  0.00E+00  1.15E-06  3.49E-04  9.27E-03  0.00000
   1742.    5.741  1.15E-06  3.48E-04  0.00E+00  0.00E+00  0.00E+00  0.00E+00  1.15E-06  3.48E-04  9.27E-03  0.00000
   1744.    5.734  1.14E-06  3.47E-04  0.00E+00  0.00E+00  0.00E+00  0.00E+00  1.14E-06  3.47E-04  9.27E-03  0.00000
   1746.    5.727  1.13E-06  3.45E-04  0.00E+00  0.00E+00  0.00E+00  0.00E+00  1.13E-06  3.45E-04  9.27E-03  0.00000
   1748.    5.721  1.13E-06  3.44E-04  0.00E+00  0.00E+00  0.00E+00  0.00E+00  1.13E-06  3.44E-04  9.28E-03  0.00000
   1750.    5.714  1.12E-06  3.43E-04  0.00E+00  0.00E+00  0.00E+00  0.00E+00  1.12E-06  3.43E-04  9.28E-03  0.00000
   1752.    5.708  1.11E-06  3.41E-04  0.00E+00  0.00E+00  0.00E+00  0.00E+00  1.11E-06  3.41E-04  9.28E-03  0.00000
   1754.    5.701  1.10E-06  3.38E-04  0.00E+00  0.00E+00  0.00E+00  0.00E+00  1.10E-06  3.38E-04  9.28E-03  0.00000
   1756.    5.695  1.09E-06  3.37E-04  0.00E+00  0.00E+00  0.00E+00  0.00E+00  1.09E-06  3.37E-04  9.29E-03  0.00000
   1758.    5.688  1.09E-06  3.36E-04  0.00E+00  0.00E+00  0.00E+00  0.00E+00  1.09E-06  3.36E-04  9.29E-03  0.00000
   1760.    5.682  1.08E-06  3.34E-04  0.00E+00  0.00E+00  0.00E+00  0.00E+00  1.08E-06  3.34E-04  9.29E-03  0.00000
   1762.    5.675  1.07E-06  3.33E-04  0.00E+00  0.00E+00  0.00E+00  0.00E+00  1.07E-06  3.33E-04  9.29E-03  0.00000
   1764.    5.669  1.06E-06  3.31E-04  0.00E+00  0.00E+00  0.00E+00  0.00E+00  1.06E-06  3.31E-04  9.29E-03  0.00000
   1766.    5.663  1.05E-06  3.29E-04  0.00E+00  0.00E+00  0.00E+00  0.00E+00  1.05E-06  3.29E-04  9.30E-03  0.00000
   1768.    5.656  1.05E-06  3.29E-04  0.00E+00  0.00E+00  0.00E+00  0.00E+00  1.05E-06  3.29E-04  9.30E-03  0.00000
   1770.    5.650  1.05E-06  3.29E-04  0.00E+00  0.00E+00  0.00E+00  0.00E+00  1.05E-06  3.29E-04  9.30E-03  0.00000
   1772.    5.643  1.04E-06  3.27E-04  0.00E+00  0.00E+00  0.00E+00  0.00E+00  1.04E-06  3.27E-04  9.30E-03  0.00000
   1774.    5.637  1.03E-06  3.25E-04  0.00E+00  0.00E+00  0.00E+00  0.00E+00  1.03E-06  3.25E-04  9.30E-03  0.00000
   1776.    5.631  1.02E-06  3.23E-04  0.00E+00  0.00E+00  0.00E+00  0.00E+00  1.02E-06  3.23E-04  9.31E-03  0.00000
   1778.    5.624  1.01E-06  3.21E-04  0.00E+00  0.00E+00  0.00E+00  0.00E+00  1.01E-06  3.21E-04  9.31E-03  0.00000
   1780.    5.618  1.01E-06  3.20E-04  0.00E+00  0.00E+00  0.00E+00  0.00E+00  1.01E-06  3.20E-04  9.31E-03  0.00000
   1782.    5.612  1.00E-06  3.18E-04  0.00E+00  0.00E+00  0.00E+00  0.00E+00  1.00E-06  3.18E-04  9.31E-03  0.00000
   1784.    5.605  9.95E-07  3.17E-04  0.00E+00  0.00E+00  0.00E+00  0.00E+00  9.95E-07  3.17E-04  9.31E-03  0.00000
   1786.    5.599  9.84E-07  3.14E-04  0.00E+00  0.00E+00  0.00E+00  0.00E+00  9.84E-07  3.14E-04  9.32E-03  0.00000
   1788.    5.593  9.78E-07  3.13E-04  0.00E+00  0.00E+00  0.00E+00  0.00E+00  9.78E-07  3.13E-04  9.32E-03  0.00000
   1790.    5.587  9.79E-07  3.14E-04  0.00E+00  0.00E+00  0.00E+00  0.00E+00  9.79E-07  3.14E-04  9.32E-03  0.00000
   1792.    5.580  9.74E-07  3.13E-04  0.00E+00  0.00E+00  0.00E+00  0.00E+00  9.74E-07  3.13E-04  9.32E-03  0.00000
   1794.    5.574  9.67E-07  3.11E-04  0.00E+00  0.00E+00  0.00E+00  0.00E+00  9.67E-07  3.11E-04  9.32E-03  0.00000
   1796.    5.568  9.59E-07  3.09E-04  0.00E+00  0.00E+00  0.00E+00  0.00E+00  9.59E-07  3.09E-04  9.33E-03  0.00000
   1798.    5.562  9.51E-07  3.08E-04  0.00E+00  0.00E+00  0.00E+00  0.00E+00  9.51E-07  3.08E-04  9.33E-03  0.00000
   1800.    5.556  9.46E-07  3.06E-04  0.00E+00  0.00E+00  0.00E+00  0.00E+00  9.46E-07  3.06E-04  9.33E-03  0.00000
   1802.    5.549  9.38E-07  3.05E-04  0.00E+00  0.00E+00  0.00E+00  0.00E+00  9.38E-07  3.05E-04  9.33E-03  0.00000
   1804.    5.543  9.25E-07  3.01E-04  0.00E+00  0.00E+00  0.00E+00  0.00E+00  9.25E-07  3.01E-04  9.33E-03  0.00000
   1806.    5.537  9.17E-07  2.99E-04  0.00E+00  0.00E+00  0.00E+00  0.00E+00  9.17E-07  2.99E-04  9.34E-03  0.00000
   1808.    5.531  9.14E-07  2.99E-04  0.00E+00  0.00E+00  0.00E+00  0.00E+00  9.14E-07  2.99E-04  9.34E-03  0.00000
   1810.    5.525  9.12E-07  2.99E-04  0.00E+00  0.00E+00  0.00E+00  0.00E+00  9.12E-07  2.99E-04  9.34E-03  0.00000
   1812.    5.519  9.04E-07  2.97E-04  0.00E+00  0.00E+00  0.00E+00  0.00E+00  9.04E-07  2.97E-04  9.34E-03  0.00000
   1814.    5.513  8.88E-07  2.92E-04  0.00E+00  0.00E+00  0.00E+00  0.00E+00  8.88E-07  2.92E-04  9.34E-03  0.00003
   1816.    5.507  8.79E-07  2.90E-04  0.00E+00  0.00E+00  0.00E+00  0.00E+00  8.79E-07  2.90E-04  9.34E-03  0.00004
   1818.    5.501  8.72E-07  2.88E-04  0.00E+00  0.00E+00  0.00E+00  0.00E+00  8.72E-07  2.88E-04  9.35E-03  0.00012
   1820.    5.495  8.65E-07  2.87E-04  0.00E+00  0.00E+00  0.00E+00  0.00E+00  8.65E-07  2.87E-04  9.35E-03  0.00016
   1822.    5.488  8.69E-07  2.88E-04  0.00E+00  0.00E+00  0.00E+00  0.00E+00  8.69E-07  2.88E-04  9.35E-03  0.00002
   1824.    5.482  8.71E-07  2.90E-04  0.00E+00  0.00E+00  0.00E+00  0.00E+00  8.71E-07  2.90E-04  9.35E-03  0.00000
   1826.    5.476  8.69E-07  2.90E-04  0.00E+00  0.00E+00  0.00E+00  0.00E+00  8.69E-07  2.90E-04  9.35E-03  0.00000
   1828.    5.470  8.63E-07  2.88E-04  0.00E+00  0.00E+00  0.00E+00  0.00E+00  8.63E-07  2.88E-04  9.36E-03  0.00000
   1830.    5.464  8.59E-07  2.88E-04  0.00E+00  0.00E+00  0.00E+00  0.00E+00  8.59E-07  2.88E-04  9.36E-03  0.00000
   1832.    5.459  8.48E-07  2.85E-04  0.00E+00  0.00E+00  0.00E+00  0.00E+00  8.48E-07  2.85E-04  9.36E-03  0.00000
   1834.    5.453  8.35E-07  2.81E-04  0.00E+00  0.00E+00  0.00E+00  0.00E+00  8.35E-07  2.81E-04  9.36E-03  0.00000
   1836.    5.447  8.31E-07  2.80E-04  0.00E+00  0.00E+00  0.00E+00  0.00E+00  8.31E-07  2.80E-04  9.36E-03  0.00000
   1838.    5.441  8.27E-07  2.79E-04  0.00E+00  0.00E+00  0.00E+00  0.00E+00  8.27E-07  2.79E-04  9.36E-03  0.00000
   1840.    5.435  8.18E-07  2.77E-04  0.00E+00  0.00E+00  0.00E+00  0.00E+00  8.18E-07  2.77E-04  9.37E-03  0.00000
   1842.    5.429  8.19E-07  2.78E-04  0.00E+00  0.00E+00  0.00E+00  0.00E+00  8.19E-07  2.78E-04  9.37E-03  0.00000
   1844.    5.423  8.19E-07  2.79E-04  0.00E+00  0.00E+00  0.00E+00  0.00E+00  8.19E-07  2.79E-04  9.37E-03  0.00000
   1846.    5.417  8.13E-07  2.77E-04  0.00E+00  0.00E+00  0.00E+00  0.00E+00  8.13E-07  2.77E-04  9.37E-03  0.00000
   1848.    5.411  8.01E-07  2.74E-04  0.00E+00  0.00E+00  0.00E+00  0.00E+00  8.01E-07  2.74E-04  9.37E-03  0.00001
   1850.    5.405  7.84E-07  2.68E-04  0.00E+00  0.00E+00  0.00E+00  0.00E+00  7.84E-07  2.68E-04  9.37E-03  0.00027
   1852.    5.400  7.69E-07  2.64E-04  0.00E+00  0.00E+00  0.00E+00  0.00E+00  7.69E-07  2.64E-04  9.37E-03  0.00135
   1854.    5.394  7.53E-07  2.59E-04  0.00E+00  0.00E+00  0.00E+00  0.00E+00  7.53E-07  2.59E-04  9.38E-03  0.00492
   1856.    5.388  7.48E-07  2.58E-04  0.00E+00  0.00E+00  0.00E+00  0.00E+00  7.48E-07  2.58E-04  9.38E-03  0.00558
   1858.    5.382  7.58E-07  2.62E-04  0.00E+00  0.00E+00  0.00E+00  0.00E+00  7.58E-07  2.62E-04  9.38E-03  0.00177
   1860.    5.376  7.58E-07  2.62E-04  0.00E+00  0.00E+00  0.00E+00  0.00E+00  7.58E-07  2.62E-04  9.38E-03  0.00029
   1862.    5.371  7.48E-07  2.59E-04  0.00E+00  0.00E+00  0.00E+00  0.00E+00  7.48E-07  2.59E-04  9.38E-03  0.00063
   1864.    5.365  7.48E-07  2.60E-04  0.00E+00  0.00E+00  0.00E+00  0.00E+00  7.48E-07  2.60E-04  9.38E-03  0.00035
   1866.    5.359  7.55E-07  2.63E-04  0.00E+00  0.00E+00  0.00E+00  0.00E+00  7.55E-07  2.63E-04  9.39E-03  0.00001
   1868.    5.353  7.57E-07  2.64E-04  0.00E+00  0.00E+00  0.00E+00  0.00E+00  7.57E-07  2.64E-04  9.39E-03  0.00000
   1870.    5.348  7.50E-07  2.62E-04  0.00E+00  0.00E+00  0.00E+00  0.00E+00  7.50E-07  2.62E-04  9.39E-03  0.00000
   1872.    5.342  7.30E-07  2.56E-04  0.00E+00  0.00E+00  0.00E+00  0.00E+00  7.30E-07  2.56E-04  9.39E-03  0.00084
   1874.    5.336  6.99E-07  2.45E-04  0.00E+00  0.00E+00  0.00E+00  0.00E+00  6.99E-07  2.45E-04  9.39E-03  0.00808
   1876.    5.330  6.77E-07  2.38E-04  0.00E+00  0.00E+00  0.00E+00  0.00E+00  6.77E-07  2.38E-04  9.39E-03  0.01872
   1878.    5.325  6.69E-07  2.36E-04  0.00E+00  0.00E+00  0.00E+00  0.00E+00  6.69E-07  2.36E-04  9.39E-03  0.02385
   1880.    5.319  6.56E-07  2.32E-04  0.00E+00  0.00E+00  0.00E+00  0.00E+00  6.56E-07  2.32E-04  9.40E-03  0.03281
   1882.    5.313  6.40E-07  2.27E-04  0.00E+00  0.00E+00  0.00E+00  0.00E+00  6.40E-07  2.27E-04  9.40E-03  0.04194
   1884.    5.308  6.79E-07  2.41E-04  0.00E+00  0.00E+00  0.00E+00  0.00E+00  6.79E-07  2.41E-04  9.40E-03  0.01293
   1886.    5.302  6.92E-07  2.46E-04  0.00E+00  0.00E+00  0.00E+00  0.00E+00  6.92E-07  2.46E-04  9.40E-03  0.00051
   1888.    5.297  6.93E-07  2.47E-04  0.00E+00  0.00E+00  0.00E+00  0.00E+00  6.93E-07  2.47E-04  9.40E-03  0.00038
   1890.    5.291  6.95E-07  2.48E-04  0.00E+00  0.00E+00  0.00E+00  0.00E+00  6.95E-07  2.48E-04  9.40E-03  0.00006
   1892.    5.285  6.82E-07  2.44E-04  0.00E+00  0.00E+00  0.00E+00  0.00E+00  6.82E-07  2.44E-04  9.40E-03  0.00016
   1894.    5.280  6.80E-07  2.44E-04  0.00E+00  0.00E+00  0.00E+00  0.00E+00  6.80E-07  2.44E-04  9.40E-03  0.00012
   1896.    5.274  6.71E-07  2.41E-04  0.00E+00  0.00E+00  0.00E+00  0.00E+00  6.71E-07  2.41E-04  9.41E-03  0.00283
   1898.    5.269  6.19E-07  2.23E-04  0.00E+00  0.00E+00  0.00E+00  0.00E+00  6.19E-07  2.23E-04  9.41E-03  0.03424
   1900.    5.263  5.74E-07  2.07E-04  0.00E+00  0.00E+00  0.00E+00  0.00E+00  5.74E-07  2.07E-04  9.41E-03  0.07196
   1902.    5.258  6.02E-07  2.18E-04  0.00E+00  0.00E+00  0.00E+00  0.00E+00  6.02E-07  2.18E-04  9.41E-03  0.04062
   1904.    5.252  6.33E-07  2.29E-04  0.00E+00  0.00E+00  0.00E+00  0.00E+00  6.33E-07  2.29E-04  9.41E-03  0.00989
   1906.    5.247  6.40E-07  2.32E-04  0.00E+00  0.00E+00  0.00E+00  0.00E+00  6.40E-07  2.32E-04  9.41E-03  0.00385
   1908.    5.241  6.49E-07  2.36E-04  0.00E+00  0.00E+00  0.00E+00  0.00E+00  6.49E-07  2.36E-04  9.41E-03  0.00121
   1910.    5.236  6.43E-07  2.35E-04  0.00E+00  0.00E+00  0.00E+00  0.00E+00  6.43E-07  2.35E-04  9.41E-03  0.00106
   1912.    5.230  6.16E-07  2.25E-04  0.00E+00  0.00E+00  0.00E+00  0.00E+00  6.16E-07  2.25E-04  9.42E-03  0.00780
   1914.    5.225  6.08E-07  2.23E-04  0.00E+00  0.00E+00  0.00E+00  0.00E+00  6.08E-07  2.23E-04  9.42E-03  0.00898
   1916.    5.219  6.24E-07  2.29E-04  0.00E+00  0.00E+00  0.00E+00  0.00E+00  6.24E-07  2.29E-04  9.42E-03  0.00194
   1918.    5.214  6.34E-07  2.33E-04  0.00E+00  0.00E+00  0.00E+00  0.00E+00  6.34E-07  2.33E-04  9.42E-03  0.00003
   1920.    5.208  6.28E-07  2.32E-04  0.00E+00  0.00E+00  0.00E+00  0.00E+00  6.28E-07  2.32E-04  9.42E-03  0.00000
   1922.    5.203  6.24E-07  2.31E-04  0.00E+00  0.00E+00  0.00E+00  0.00E+00  6.24E-07  2.31E-04  9.42E-03  0.00000
   1924.    5.198  6.13E-07  2.27E-04  0.00E+00  0.00E+00  0.00E+00  0.00E+00  6.13E-07  2.27E-04  9.42E-03  0.00281
   1926.    5.192  5.66E-07  2.10E-04  0.00E+00  0.00E+00  0.00E+00  0.00E+00  5.66E-07  2.10E-04  9.42E-03  0.02980
   1928.    5.187  4.97E-07  1.85E-04  0.00E+00  0.00E+00  0.00E+00  0.00E+00  4.97E-07  1.85E-04  9.43E-03  0.10652
   1930.    5.181  4.51E-07  1.68E-04  0.00E+00  0.00E+00  0.00E+00  0.00E+00  4.51E-07  1.68E-04  9.43E-03  0.16823
   1932.    5.176  5.13E-07  1.91E-04  0.00E+00  0.00E+00  0.00E+00  0.00E+00  5.13E-07  1.91E-04  9.43E-03  0.08409
   1934.    5.171  5.24E-07  1.96E-04  0.00E+00  0.00E+00  0.00E+00  0.00E+00  5.24E-07  1.96E-04  9.43E-03  0.06497
   1936.    5.165  4.65E-07  1.74E-04  0.00E+00  0.00E+00  0.00E+00  0.00E+00  4.65E-07  1.74E-04  9.43E-03  0.13338
   1938.    5.160  4.95E-07  1.86E-04  0.00E+00  0.00E+00  0.00E+00  0.00E+00  4.95E-07  1.86E-04  9.43E-03  0.08698
   1940.    5.155  5.47E-07  2.06E-04  0.00E+00  0.00E+00  0.00E+00  0.00E+00  5.47E-07  2.06E-04  9.43E-03  0.02583
   1942.    5.149  5.80E-07  2.19E-04  0.00E+00  0.00E+00  0.00E+00  0.00E+00  5.80E-07  2.19E-04  9.43E-03  0.00159
   1944.    5.144  5.79E-07  2.19E-04  0.00E+00  0.00E+00  0.00E+00  0.00E+00  5.79E-07  2.19E-04  9.43E-03  0.00000
   1946.    5.139  5.62E-07  2.13E-04  0.00E+00  0.00E+00  0.00E+00  0.00E+00  5.62E-07  2.13E-04  9.44E-03  0.00782
   1948.    5.133  5.13E-07  1.95E-04  0.00E+00  0.00E+00  0.00E+00  0.00E+00  5.13E-07  1.95E-04  9.44E-03  0.04833
   1950.    5.128  4.50E-07  1.71E-04  0.00E+00  0.00E+00  0.00E+00  0.00E+00  4.50E-07  1.71E-04  9.44E-03  0.12634
   1952.    5.123  4.07E-07  1.55E-04  0.00E+00  0.00E+00  0.00E+00  0.00E+00  4.07E-07  1.55E-04  9.44E-03  0.19212
   1954.    5.118  4.82E-07  1.84E-04  0.00E+00  0.00E+00  0.00E+00  0.00E+00  4.82E-07  1.84E-04  9.44E-03  0.08537
   1956.    5.112  5.08E-07  1.94E-04  0.00E+00  0.00E+00  0.00E+00  0.00E+00  5.08E-07  1.94E-04  9.44E-03  0.03725
   1958.    5.107  4.29E-07  1.64E-04  0.00E+00  0.00E+00  0.00E+00  0.00E+00  4.29E-07  1.64E-04  9.44E-03  0.14761
   1960.    5.102  4.30E-07  1.65E-04  0.00E+00  0.00E+00  0.00E+00  0.00E+00  4.30E-07  1.65E-04  9.44E-03  0.14336
   1962.    5.097  4.56E-07  1.76E-04  0.00E+00  0.00E+00  0.00E+00  0.00E+00  4.56E-07  1.76E-04  9.44E-03  0.09506
   1964.    5.092  4.40E-07  1.70E-04  0.00E+00  0.00E+00  0.00E+00  0.00E+00  4.40E-07  1.70E-04  9.44E-03  0.11342
   1966.    5.086  5.10E-07  1.97E-04  0.00E+00  0.00E+00  0.00E+00  0.00E+00  5.10E-07  1.97E-04  9.44E-03  0.02370
   1968.    5.081  5.06E-07  1.96E-04  0.00E+00  0.00E+00  0.00E+00  0.00E+00  5.06E-07  1.96E-04  9.45E-03  0.02577
   1970.    5.076  3.91E-07  1.52E-04  0.00E+00  0.00E+00  0.00E+00  0.00E+00  3.91E-07  1.52E-04  9.45E-03  0.18739
   1972.    5.071  2.70E-07  1.05E-04  0.00E+00  0.00E+00  0.00E+00  0.00E+00  2.70E-07  1.05E-04  9.45E-03  0.40268
   1974.    5.066  2.53E-07  9.85E-05  0.00E+00  0.00E+00  0.00E+00  0.00E+00  2.53E-07  9.85E-05  9.45E-03  0.43851
   1976.    5.061  3.09E-07  1.21E-04  0.00E+00  0.00E+00  0.00E+00  0.00E+00  3.09E-07  1.21E-04  9.45E-03  0.32522
   1978.    5.056  2.55E-07  9.97E-05  0.00E+00  0.00E+00  0.00E+00  0.00E+00  2.55E-07  9.97E-05  9.45E-03  0.42824
   1980.    5.051  2.27E-07  8.88E-05  0.00E+00  0.00E+00  0.00E+00  0.00E+00  2.27E-07  8.88E-05  9.45E-03  0.48437
   1982.    5.045  2.52E-07  9.89E-05  0.00E+00  0.00E+00  0.00E+00  0.00E+00  2.52E-07  9.89E-05  9.45E-03  0.42524
   1984.    5.040  2.70E-07  1.06E-04  0.00E+00  0.00E+00  0.00E+00  0.00E+00  2.70E-07  1.06E-04  9.45E-03  0.37802
   1986.    5.035  3.66E-07  1.44E-04  0.00E+00  0.00E+00  0.00E+00  0.00E+00  3.66E-07  1.44E-04  9.45E-03  0.19402
   1988.    5.030  4.63E-07  1.83E-04  0.00E+00  0.00E+00  0.00E+00  0.00E+00  4.63E-07  1.83E-04  9.45E-03  0.03226
   1990.    5.025  4.81E-07  1.90E-04  0.00E+00  0.00E+00  0.00E+00  0.00E+00  4.81E-07  1.90E-04  9.45E-03  0.00515
   1992.    5.020  4.84E-07  1.92E-04  0.00E+00  0.00E+00  0.00E+00  0.00E+00  4.84E-07  1.92E-04  9.45E-03  0.00284
   1994.    5.015  4.27E-07  1.70E-04  0.00E+00  0.00E+00  0.00E+00  0.00E+00  4.27E-07  1.70E-04  9.45E-03  0.07748
   1996.    5.010  3.33E-07  1.33E-04  0.00E+00  0.00E+00  0.00E+00  0.00E+00  3.33E-07  1.33E-04  9.45E-03  0.22546
   1998.    5.005  3.66E-07  1.46E-04  0.00E+00  0.00E+00  0.00E+00  0.00E+00  3.66E-07  1.46E-04  9.46E-03  0.16149
   2000.    5.000  3.14E-07  1.26E-04  0.00E+00  0.00E+00  0.00E+00  0.00E+00  3.14E-07  1.26E-04  9.46E-03  0.26862
   2002.    4.995  1.96E-07  7.86E-05  0.00E+00  0.00E+00  0.00E+00  0.00E+00  1.96E-07  7.86E-05  9.46E-03  0.51239
   2004.    4.990  1.75E-07  7.02E-05  0.00E+00  0.00E+00  0.00E+00  0.00E+00  1.75E-07  7.02E-05  9.46E-03  0.55939
   2006.    4.985  2.61E-07  1.05E-04  0.00E+00  0.00E+00  0.00E+00  0.00E+00  2.61E-07  1.05E-04  9.46E-03  0.36684
   2008.    4.980  3.67E-07  1.48E-04  0.00E+00  0.00E+00  0.00E+00  0.00E+00  3.67E-07  1.48E-04  9.46E-03  0.14012
   2010.    4.975  2.93E-07  1.18E-04  0.00E+00  0.00E+00  0.00E+00  0.00E+00  2.93E-07  1.18E-04  9.46E-03  0.28893
   2012.    4.970  2.03E-07  8.23E-05  0.00E+00  0.00E+00  0.00E+00  0.00E+00  2.03E-07  8.23E-05  9.46E-03  0.47510
   2014.    4.965  2.64E-07  1.07E-04  0.00E+00  0.00E+00  0.00E+00  0.00E+00  2.64E-07  1.07E-04  9.46E-03  0.34125
   2016.    4.960  3.97E-07  1.61E-04  0.00E+00  0.00E+00  0.00E+00  0.00E+00  3.97E-07  1.61E-04  9.46E-03  0.08259
   2018.    4.955  4.39E-07  1.79E-04  0.00E+00  0.00E+00  0.00E+00  0.00E+00  4.39E-07  1.79E-04  9.46E-03  0.00305
   2020.    4.950  3.67E-07  1.50E-04  0.00E+00  0.00E+00  0.00E+00  0.00E+00  3.67E-07  1.50E-04  9.46E-03  0.11990
   2022.    4.946  3.07E-07  1.25E-04  0.00E+00  0.00E+00  0.00E+00  0.00E+00  3.07E-07  1.25E-04  9.46E-03  0.22802
   2024.    4.941  2.96E-07  1.21E-04  0.00E+00  0.00E+00  0.00E+00  0.00E+00  2.96E-07  1.21E-04  9.46E-03  0.24844
   2026.    4.936  2.79E-07  1.15E-04  0.00E+00  0.00E+00  0.00E+00  0.00E+00  2.79E-07  1.15E-04  9.46E-03  0.27858
   2028.    4.931  2.25E-07  9.26E-05  0.00E+00  0.00E+00  0.00E+00  0.00E+00  2.25E-07  9.26E-05  9.46E-03  0.40842
   2030.    4.926  1.21E-07  5.01E-05  0.00E+00  0.00E+00  0.00E+00  0.00E+00  1.21E-07  5.01E-05  9.46E-03  0.65468
   2032.    4.921  1.18E-07  4.85E-05  0.00E+00  0.00E+00  0.00E+00  0.00E+00  1.18E-07  4.85E-05  9.46E-03  0.66734
   2034.    4.916  1.69E-07  7.01E-05  0.00E+00  0.00E+00  0.00E+00  0.00E+00  1.69E-07  7.01E-05  9.47E-03  0.53349
   2036.    4.912  1.78E-07  7.38E-05  0.00E+00  0.00E+00  0.00E+00  0.00E+00  1.78E-07  7.38E-05  9.47E-03  0.49685
   2038.    4.907  2.32E-07  9.64E-05  0.00E+00  0.00E+00  0.00E+00  0.00E+00  2.32E-07  9.64E-05  9.47E-03  0.35625
   2040.    4.902  3.05E-07  1.27E-04  0.00E+00  0.00E+00  0.00E+00  0.00E+00  3.05E-07  1.27E-04  9.47E-03  0.19585
   2042.    4.897  3.66E-07  1.53E-04  0.00E+00  0.00E+00  0.00E+00  0.00E+00  3.66E-07  1.53E-04  9.47E-03  0.05608
   2044.    4.892  2.92E-07  1.22E-04  0.00E+00  0.00E+00  0.00E+00  0.00E+00  2.92E-07  1.22E-04  9.47E-03  0.20986
   2046.    4.888  2.22E-07  9.31E-05  0.00E+00  0.00E+00  0.00E+00  0.00E+00  2.22E-07  9.31E-05  9.47E-03  0.35994
   2048.    4.883  1.74E-07  7.31E-05  0.00E+00  0.00E+00  0.00E+00  0.00E+00  1.74E-07  7.31E-05  9.47E-03  0.45953
   2050.    4.878  1.24E-07  5.20E-05  0.00E+00  0.00E+00  0.00E+00  0.00E+00  1.24E-07  5.20E-05  9.47E-03  0.56964
   2052.    4.873  1.35E-07  5.68E-05  0.00E+00  0.00E+00  0.00E+00  0.00E+00  1.35E-07  5.68E-05  9.47E-03  0.52943
   2054.    4.869  1.39E-07  5.85E-05  0.00E+00  0.00E+00  0.00E+00  0.00E+00  1.39E-07  5.85E-05  9.47E-03  0.51867
   2056.    4.864  1.21E-07  5.12E-05  0.00E+00  0.00E+00  0.00E+00  0.00E+00  1.21E-07  5.12E-05  9.47E-03  0.56623
   2058.    4.859  1.57E-07  6.66E-05  0.00E+00  0.00E+00  0.00E+00  0.00E+00  1.57E-07  6.66E-05  9.47E-03  0.47492
   2060.    4.854  2.40E-07  1.02E-04  0.00E+00  0.00E+00  0.00E+00  0.00E+00  2.40E-07  1.02E-04  9.47E-03  0.27909
   2062.    4.850  2.32E-07  9.87E-05  0.00E+00  0.00E+00  0.00E+00  0.00E+00  2.32E-07  9.87E-05  9.47E-03  0.28442
   2064.    4.845  3.03E-07  1.29E-04  0.00E+00  0.00E+00  0.00E+00  0.00E+00  3.03E-07  1.29E-04  9.47E-03  0.12848
   2066.    4.840  3.01E-07  1.28E-04  0.00E+00  0.00E+00  0.00E+00  0.00E+00  3.01E-07  1.28E-04  9.47E-03  0.14138
   2068.    4.836  1.70E-07  7.29E-05  0.00E+00  0.00E+00  0.00E+00  0.00E+00  1.70E-07  7.29E-05  9.47E-03  0.41421
   2070.    4.831  1.05E-07  4.52E-05  0.00E+00  0.00E+00  0.00E+00  0.00E+00  1.05E-07  4.52E-05  9.47E-03  0.56555
   2072.    4.826  1.42E-07  6.11E-05  0.00E+00  0.00E+00  0.00E+00  0.00E+00  1.42E-07  6.11E-05  9.47E-03  0.47421
   2074.    4.822  1.90E-07  8.16E-05  0.00E+00  0.00E+00  0.00E+00  0.00E+00  1.90E-07  8.16E-05  9.47E-03  0.36696
   2076.    4.817  1.93E-07  8.32E-05  0.00E+00  0.00E+00  0.00E+00  0.00E+00  1.93E-07  8.32E-05  9.47E-03  0.32662
   2078.    4.812  2.38E-07  1.03E-04  0.00E+00  0.00E+00  0.00E+00  0.00E+00  2.38E-07  1.03E-04  9.47E-03  0.18376
   2080.    4.808  1.70E-07  7.37E-05  0.00E+00  0.00E+00  0.00E+00  0.00E+00  1.70E-07  7.37E-05  9.47E-03  0.37886
   2082.    4.803  1.23E-07  5.33E-05  0.00E+00  0.00E+00  0.00E+00  0.00E+00  1.23E-07  5.33E-05  9.47E-03  0.51373
   2084.    4.798  8.55E-08  3.72E-05  0.00E+00  0.00E+00  0.00E+00  0.00E+00  8.55E-08  3.72E-05  9.48E-03  0.61487
   2086.    4.794  1.31E-07  5.68E-05  0.00E+00  0.00E+00  0.00E+00  0.00E+00  1.31E-07  5.68E-05  9.48E-03  0.50029
   2088.    4.789  1.99E-07  8.69E-05  0.00E+00  0.00E+00  0.00E+00  0.00E+00  1.99E-07  8.69E-05  9.48E-03  0.31948
   2090.    4.785  2.39E-07  1.04E-04  0.00E+00  0.00E+00  0.00E+00  0.00E+00  2.39E-07  1.04E-04  9.48E-03  0.21667
   2092.    4.780  1.78E-07  7.78E-05  0.00E+00  0.00E+00  0.00E+00  0.00E+00  1.78E-07  7.78E-05  9.48E-03  0.34062
   2094.    4.776  1.15E-07  5.03E-05  0.00E+00  0.00E+00  0.00E+00  0.00E+00  1.15E-07  5.03E-05  9.48E-03  0.48617
   2096.    4.771  1.04E-07  4.57E-05  0.00E+00  0.00E+00  0.00E+00  0.00E+00  1.04E-07  4.57E-05  9.48E-03  0.55337
   2098.    4.766  1.02E-07  4.48E-05  0.00E+00  0.00E+00  0.00E+00  0.00E+00  1.02E-07  4.48E-05  9.48E-03  0.56733
   2100.    4.762  1.04E-07  4.58E-05  0.00E+00  0.00E+00  0.00E+00  0.00E+00  1.04E-07  4.58E-05  9.48E-03  0.55849
   2102.    4.757  6.50E-08  2.87E-05  0.00E+00  0.00E+00  0.00E+00  0.00E+00  6.50E-08  2.87E-05  9.48E-03  0.67177
   2104.    4.753  5.80E-08  2.57E-05  0.00E+00  0.00E+00  0.00E+00  0.00E+00  5.80E-08  2.57E-05  9.48E-03  0.68945
   2106.    4.748  1.04E-07  4.62E-05  0.00E+00  0.00E+00  0.00E+00  0.00E+00  1.04E-07  4.62E-05  9.48E-03  0.54046
   2108.    4.744  9.03E-08  4.01E-05  0.00E+00  0.00E+00  0.00E+00  0.00E+00  9.03E-08  4.01E-05  9.48E-03  0.56523
   2110.    4.739  4.77E-08  2.12E-05  0.00E+00  0.00E+00  0.00E+00  0.00E+00  4.77E-08  2.12E-05  9.48E-03  0.72430
   2112.    4.735  6.32E-08  2.82E-05  0.00E+00  0.00E+00  0.00E+00  0.00E+00  6.32E-08  2.82E-05  9.48E-03  0.72134
   2114.    4.730  1.76E-07  7.87E-05  0.00E+00  0.00E+00  0.00E+00  0.00E+00  1.76E-07  7.87E-05  9.48E-03  0.36726
   2116.    4.726  1.66E-07  7.42E-05  0.00E+00  0.00E+00  0.00E+00  0.00E+00  1.66E-07  7.42E-05  9.48E-03  0.36064
   2118.    4.721  5.58E-08  2.50E-05  0.00E+00  0.00E+00  0.00E+00  0.00E+00  5.58E-08  2.50E-05  9.48E-03  0.65254
   2120.    4.717  5.98E-08  2.69E-05  0.00E+00  0.00E+00  0.00E+00  0.00E+00  5.98E-08  2.69E-05  9.48E-03  0.62686
   2122.    4.713  9.13E-08  4.11E-05  0.00E+00  0.00E+00  0.00E+00  0.00E+00  9.13E-08  4.11E-05  9.48E-03  0.52829
   2124.    4.708  1.04E-07  4.68E-05  0.00E+00  0.00E+00  0.00E+00  0.00E+00  1.04E-07  4.68E-05  9.48E-03  0.49940
   2126.    4.704  6.38E-08  2.88E-05  0.00E+00  0.00E+00  0.00E+00  0.00E+00  6.38E-08  2.88E-05  9.48E-03  0.64687
   2128.    4.699  3.58E-08  1.62E-05  0.00E+00  0.00E+00  0.00E+00  0.00E+00  3.58E-08  1.62E-05  9.48E-03  0.72916
   2130.    4.695  4.33E-08  1.96E-05  0.00E+00  0.00E+00  0.00E+00  0.00E+00  4.33E-08  1.96E-05  9.48E-03  0.72031
   2132.    4.690  2.97E-08  1.35E-05  0.00E+00  0.00E+00  0.00E+00  0.00E+00  2.97E-08  1.35E-05  9.48E-03  0.83271
   2134.    4.686  4.68E-08  2.13E-05  0.00E+00  0.00E+00  0.00E+00  0.00E+00  4.68E-08  2.13E-05  9.48E-03  0.80484
   2136.    4.682  1.46E-07  6.68E-05  0.00E+00  0.00E+00  0.00E+00  0.00E+00  1.46E-07  6.68E-05  9.48E-03  0.44826
   2138.    4.677  1.76E-07  8.03E-05  0.00E+00  0.00E+00  0.00E+00  0.00E+00  1.76E-07  8.03E-05  9.48E-03  0.33132
   2140.    4.673  1.05E-07  4.80E-05  0.00E+00  0.00E+00  0.00E+00  0.00E+00  1.05E-07  4.80E-05  9.48E-03  0.58588
   2142.    4.669  4.17E-08  1.91E-05  0.00E+00  0.00E+00  0.00E+00  0.00E+00  4.17E-08  1.91E-05  9.48E-03  0.81999
   2144.    4.664  6.84E-08  3.14E-05  0.00E+00  0.00E+00  0.00E+00  0.00E+00  6.84E-08  3.14E-05  9.48E-03  0.71949
   2146.    4.660  1.06E-07  4.89E-05  0.00E+00  0.00E+00  0.00E+00  0.00E+00  1.06E-07  4.89E-05  9.48E-03  0.56709
   2148.    4.655  7.51E-08  3.46E-05  0.00E+00  0.00E+00  0.00E+00  0.00E+00  7.51E-08  3.46E-05  9.48E-03  0.68194
   2150.    4.651  4.01E-08  1.85E-05  0.00E+00  0.00E+00  0.00E+00  0.00E+00  4.01E-08  1.85E-05  9.48E-03  0.81927
   2152.    4.647  5.88E-08  2.72E-05  0.00E+00  0.00E+00  0.00E+00  0.00E+00  5.88E-08  2.72E-05  9.48E-03  0.74455
   2154.    4.643  5.73E-08  2.66E-05  0.00E+00  0.00E+00  0.00E+00  0.00E+00  5.73E-08  2.66E-05  9.48E-03  0.74897
   2156.    4.638  4.76E-08  2.21E-05  0.00E+00  0.00E+00  0.00E+00  0.00E+00  4.76E-08  2.21E-05  9.48E-03  0.78169
   2158.    4.634  3.93E-08  1.83E-05  0.00E+00  0.00E+00  0.00E+00  0.00E+00  3.93E-08  1.83E-05  9.48E-03  0.81533
   2160.    4.630  5.17E-08  2.41E-05  0.00E+00  0.00E+00  0.00E+00  0.00E+00  5.17E-08  2.41E-05  9.48E-03  0.76450
   2162.    4.625  1.04E-07  4.85E-05  0.00E+00  0.00E+00  0.00E+00  0.00E+00  1.04E-07  4.85E-05  9.48E-03  0.55568
   2164.    4.621  6.19E-08  2.90E-05  0.00E+00  0.00E+00  0.00E+00  0.00E+00  6.19E-08  2.90E-05  9.48E-03  0.72160
   2166.    4.617  2.49E-08  1.17E-05  0.00E+00  0.00E+00  0.00E+00  0.00E+00  2.49E-08  1.17E-05  9.48E-03  0.86768
   2168.    4.613  2.08E-08  9.79E-06  0.00E+00  0.00E+00  0.00E+00  0.00E+00  2.08E-08  9.79E-06  9.48E-03  0.88497
   2170.    4.608  3.39E-08  1.60E-05  0.00E+00  0.00E+00  0.00E+00  0.00E+00  3.39E-08  1.60E-05  9.48E-03  0.82550
   2172.    4.604  4.25E-08  2.00E-05  0.00E+00  0.00E+00  0.00E+00  0.00E+00  4.25E-08  2.00E-05  9.48E-03  0.78484
   2174.    4.600  2.51E-08  1.19E-05  0.00E+00  0.00E+00  0.00E+00  0.00E+00  2.51E-08  1.19E-05  9.48E-03  0.86018
   2176.    4.596  2.05E-08  9.70E-06  0.00E+00  0.00E+00  0.00E+00  0.00E+00  2.05E-08  9.70E-06  9.48E-03  0.87957
   2178.    4.591  1.95E-08  9.23E-06  0.00E+00  0.00E+00  0.00E+00  0.00E+00  1.95E-08  9.23E-06  9.48E-03  0.88209
   2180.    4.587  3.83E-08  1.82E-05  0.00E+00  0.00E+00  0.00E+00  0.00E+00  3.83E-08  1.82E-05  9.48E-03  0.79766
   2182.    4.583  3.69E-08  1.76E-05  0.00E+00  0.00E+00  0.00E+00  0.00E+00  3.69E-08  1.76E-05  9.48E-03  0.80220
   2184.    4.579  3.35E-08  1.60E-05  0.00E+00  0.00E+00  0.00E+00  0.00E+00  3.35E-08  1.60E-05  9.48E-03  0.81220
   2186.    4.575  6.05E-08  2.89E-05  0.00E+00  0.00E+00  0.00E+00  0.00E+00  6.05E-08  2.89E-05  9.48E-03  0.69198
   2188.    4.570  5.14E-08  2.46E-05  0.00E+00  0.00E+00  0.00E+00  0.00E+00  5.14E-08  2.46E-05  9.48E-03  0.73121
   2190.    4.566  2.67E-08  1.28E-05  0.00E+00  0.00E+00  0.00E+00  0.00E+00  2.67E-08  1.28E-05  9.48E-03  0.83775
   2192.    4.562  2.90E-08  1.39E-05  0.00E+00  0.00E+00  0.00E+00  0.00E+00  2.90E-08  1.39E-05  9.48E-03  0.82536
   2194.    4.558  3.18E-08  1.53E-05  0.00E+00  0.00E+00  0.00E+00  0.00E+00  3.18E-08  1.53E-05  9.48E-03  0.81116
   2196.    4.554  1.99E-08  9.59E-06  0.00E+00  0.00E+00  0.00E+00  0.00E+00  1.99E-08  9.59E-06  9.48E-03  0.86580
   2198.    4.550  2.85E-08  1.38E-05  0.00E+00  0.00E+00  0.00E+00  0.00E+00  2.85E-08  1.38E-05  9.48E-03  0.82199
   2200.    4.545  4.02E-08  1.94E-05  0.00E+00  0.00E+00  0.00E+00  0.00E+00  4.02E-08  1.94E-05  9.48E-03  0.76502
